"20-30mM-1_THF0mM - RawData"
"Wavelength nm."	"Abs."
300.00	0.1900
301.00	0.1892
302.00	0.1882
303.00	0.1865
304.00	0.1848
305.00	0.1833
306.00	0.1817
307.00	0.1803
308.00	0.1796
309.00	0.1791
310.00	0.1781
311.00	0.1770
312.00	0.1764
313.00	0.1758
314.00	0.1754
315.00	0.1758
316.00	0.1764
317.00	0.1765
318.00	0.1769
319.00	0.1776
320.00	0.1780
321.00	0.1784
322.00	0.1793
323.00	0.1801
324.00	0.1806
325.00	0.1816
326.00	0.1828
327.00	0.1838
328.00	0.1848
329.00	0.1859
330.00	0.1869
331.00	0.1876
332.00	0.1884
333.00	0.1899
334.00	0.1916
335.00	0.1935
336.00	0.1958
337.00	0.1986
338.00	0.2006
339.00	0.2027
340.00	0.2051
341.00	0.2071
342.00	0.2090
343.00	0.2113
344.00	0.2136
345.00	0.2161
346.00	0.2183
347.00	0.2207
348.00	0.2228
349.00	0.2250
350.00	0.2270
351.00	0.2294
352.00	0.2318
353.00	0.2345
354.00	0.2371
355.00	0.2396
356.00	0.2422
357.00	0.2447
358.00	0.2472
359.00	0.2495
360.00	0.2519
361.00	0.2542
362.00	0.2561
363.00	0.2591
364.00	0.2622
365.00	0.2657
366.00	0.2692
367.00	0.2734
368.00	0.2765
369.00	0.2800
370.00	0.2835
371.00	0.2877
372.00	0.2906
373.00	0.2939
374.00	0.2970
375.00	0.2997
376.00	0.3019
377.00	0.3055
378.00	0.3088
379.00	0.3123
380.00	0.3161
381.00	0.3199
382.00	0.3234
383.00	0.3275
384.00	0.3314
385.00	0.3354
386.00	0.3396
387.00	0.3441
388.00	0.3483
389.00	0.3527
390.00	0.3572
391.00	0.3617
392.00	0.3663
393.00	0.3708
394.00	0.3754
395.00	0.3801
396.00	0.3849
397.00	0.3897
398.00	0.3946
399.00	0.3993
400.00	0.4041
401.00	0.4091
402.00	0.4142
403.00	0.4193
404.00	0.4248
405.00	0.4303
406.00	0.4358
407.00	0.4413
408.00	0.4467
409.00	0.4522
410.00	0.4577
411.00	0.4632
412.00	0.4689
413.00	0.4748
414.00	0.4810
415.00	0.4872
416.00	0.4937
417.00	0.5002
418.00	0.5066
419.00	0.5129
420.00	0.5194
421.00	0.5261
422.00	0.5328
423.00	0.5397
424.00	0.5464
425.00	0.5532
426.00	0.5600
427.00	0.5666
428.00	0.5735
429.00	0.5807
430.00	0.5879
431.00	0.5952
432.00	0.6026
433.00	0.6101
434.00	0.6178
435.00	0.6255
436.00	0.6335
437.00	0.6416
438.00	0.6499
439.00	0.6582
440.00	0.6665
441.00	0.6746
442.00	0.6828
443.00	0.6912
444.00	0.6997
445.00	0.7086
446.00	0.7176
447.00	0.7265
448.00	0.7352
449.00	0.7436
450.00	0.7521
451.00	0.7605
452.00	0.7690
453.00	0.7775
454.00	0.7861
455.00	0.7947
456.00	0.8032
457.00	0.8119
458.00	0.8207
459.00	0.8295
460.00	0.8382
461.00	0.8472
462.00	0.8560
463.00	0.8646
464.00	0.8735
465.00	0.8822
466.00	0.8911
467.00	0.8999
468.00	0.9090
469.00	0.9178
470.00	0.9263
471.00	0.9344
472.00	0.9425
473.00	0.9501
474.00	0.9576
475.00	0.9648
476.00	0.9721
477.00	0.9791
478.00	0.9861
479.00	0.9930
480.00	0.9996
481.00	1.0059
482.00	1.0117
483.00	1.0172
484.00	1.0224
485.00	1.0275
486.00	1.0325
487.00	1.0375
488.00	1.0423
489.00	1.0468
490.00	1.0511
491.00	1.0552
492.00	1.0593
493.00	1.0633
494.00	1.0673
495.00	1.0711
496.00	1.0748
497.00	1.0782
498.00	1.0815
499.00	1.0846
500.00	1.0875
501.00	1.0903
502.00	1.0931
503.00	1.0956
504.00	1.0981
505.00	1.1006
506.00	1.1027
507.00	1.1046
508.00	1.1064
509.00	1.1080
510.00	1.1091
511.00	1.1104
512.00	1.1114
513.00	1.1119
514.00	1.1124
515.00	1.1127
516.00	1.1123
517.00	1.1114
518.00	1.1104
519.00	1.1091
520.00	1.1075
521.00	1.1059
522.00	1.1047
523.00	1.1032
524.00	1.1012
525.00	1.0990
526.00	1.0963
527.00	1.0932
528.00	1.0903
529.00	1.0866
530.00	1.0834
531.00	1.0808
532.00	1.0776
533.00	1.0746
534.00	1.0719
535.00	1.0694
536.00	1.0663
537.00	1.0639
538.00	1.0612
539.00	1.0590
540.00	1.0563
541.00	1.0540
542.00	1.0512
543.00	1.0485
544.00	1.0454
545.00	1.0428
546.00	1.0394
547.00	1.0361
548.00	1.0326
549.00	1.0287
550.00	1.0244
551.00	1.0199
552.00	1.0150
553.00	1.0095
554.00	1.0038
555.00	0.9973
556.00	0.9907
557.00	0.9834
558.00	0.9757
559.00	0.9675
560.00	0.9587
561.00	0.9491
562.00	0.9393
563.00	0.9292
564.00	0.9188
565.00	0.9081
566.00	0.8972
567.00	0.8861
568.00	0.8744
569.00	0.8627
570.00	0.8513
571.00	0.8395
572.00	0.8282
573.00	0.8168
574.00	0.8056
575.00	0.7948
576.00	0.7841
577.00	0.7737
578.00	0.7636
579.00	0.7540
580.00	0.7444
581.00	0.7355
582.00	0.7269
583.00	0.7189
584.00	0.7111
585.00	0.7037
586.00	0.6967
587.00	0.6901
588.00	0.6835
589.00	0.6775
590.00	0.6718
591.00	0.6661
592.00	0.6605
593.00	0.6553
594.00	0.6501
595.00	0.6450
596.00	0.6396
597.00	0.6339
598.00	0.6282
599.00	0.6222
600.00	0.6155
601.00	0.6087
602.00	0.6016
603.00	0.5937
604.00	0.5851
605.00	0.5760
606.00	0.5663
607.00	0.5560
608.00	0.5448
609.00	0.5336
610.00	0.5217
611.00	0.5092
612.00	0.4964
613.00	0.4830
614.00	0.4688
615.00	0.4544
616.00	0.4406
617.00	0.4282
618.00	0.4148
619.00	0.4004
620.00	0.3862
621.00	0.3718
622.00	0.3562
623.00	0.3423
624.00	0.3291
625.00	0.3158
626.00	0.3023
627.00	0.2894
628.00	0.2764
629.00	0.2644
630.00	0.2526
631.00	0.2413
632.00	0.2297
633.00	0.2184
634.00	0.2077
635.00	0.1977
636.00	0.1883
637.00	0.1794
638.00	0.1713
639.00	0.1633
640.00	0.1556
641.00	0.1481
642.00	0.1413
643.00	0.1348
644.00	0.1288
645.00	0.1230
646.00	0.1176
647.00	0.1125
648.00	0.1075
649.00	0.1029
650.00	0.0988
651.00	0.0947
652.00	0.0908
653.00	0.0871
654.00	0.0833
655.00	0.0796
656.00	0.0761
657.00	0.0732
658.00	0.0707
659.00	0.0687
660.00	0.0667
661.00	0.0651
662.00	0.0634
663.00	0.0618
664.00	0.0599
665.00	0.0584
666.00	0.0573
667.00	0.0558
668.00	0.0543
669.00	0.0528
670.00	0.0522
671.00	0.0509
672.00	0.0500
673.00	0.0491
674.00	0.0480
675.00	0.0460
676.00	0.0449
677.00	0.0435
678.00	0.0422
679.00	0.0412
680.00	0.0403
681.00	0.0394
682.00	0.0388
683.00	0.0381
684.00	0.0374
685.00	0.0367
686.00	0.0358
687.00	0.0348
688.00	0.0340
689.00	0.0334
690.00	0.0327
691.00	0.0326
692.00	0.0320
693.00	0.0316
694.00	0.0312
695.00	0.0313
696.00	0.0305
697.00	0.0299
698.00	0.0290
699.00	0.0285
700.00	0.0277
701.00	0.0274
702.00	0.0270
703.00	0.0274
704.00	0.0273
705.00	0.0266
706.00	0.0264
707.00	0.0261
708.00	0.0256
709.00	0.0251
710.00	0.0252
711.00	0.0251
712.00	0.0250
713.00	0.0245
714.00	0.0243
715.00	0.0240
716.00	0.0236
717.00	0.0233
718.00	0.0228
719.00	0.0225
720.00	0.0224
721.00	0.0223
722.00	0.0223
723.00	0.0223
724.00	0.0214
725.00	0.0212
726.00	0.0200
727.00	0.0196
728.00	0.0192
729.00	0.0196
730.00	0.0192
731.00	0.0198
732.00	0.0196
733.00	0.0194
734.00	0.0191
735.00	0.0186
736.00	0.0179
737.00	0.0177
738.00	0.0178
739.00	0.0179
740.00	0.0179
741.00	0.0184
742.00	0.0182
743.00	0.0179
744.00	0.0176
745.00	0.0174
746.00	0.0173
747.00	0.0170
748.00	0.0175
749.00	0.0174
750.00	0.0174
751.00	0.0175
752.00	0.0176
753.00	0.0171
754.00	0.0172
755.00	0.0173
756.00	0.0172
757.00	0.0170
758.00	0.0170
759.00	0.0169
760.00	0.0168
761.00	0.0166
762.00	0.0168
763.00	0.0170
764.00	0.0171
765.00	0.0172
766.00	0.0175
767.00	0.0173
768.00	0.0171
769.00	0.0171
770.00	0.0166
771.00	0.0159
772.00	0.0158
773.00	0.0157
774.00	0.0156
775.00	0.0160
776.00	0.0163
777.00	0.0163
778.00	0.0164
779.00	0.0165
780.00	0.0161
781.00	0.0159
782.00	0.0158
783.00	0.0158
784.00	0.0156
785.00	0.0159
786.00	0.0161
787.00	0.0160
788.00	0.0158
789.00	0.0158
790.00	0.0156
791.00	0.0154
792.00	0.0152
793.00	0.0147
794.00	0.0144
795.00	0.0140
796.00	0.0135
797.00	0.0128
798.00	0.0125
799.00	0.0118
800.00	0.0113
801.00	0.0110
802.00	0.0109
803.00	0.0105
804.00	0.0098
805.00	0.0092
806.00	0.0088
807.00	0.0084
808.00	0.0084
809.00	0.0082
810.00	0.0080
811.00	0.0078
812.00	0.0075
813.00	0.0070
814.00	0.0070
815.00	0.0071
816.00	0.0069
817.00	0.0072
818.00	0.0075
819.00	0.0078
820.00	0.0078
821.00	0.0078
822.00	0.0079
823.00	0.0078
824.00	0.0076
825.00	0.0076
826.00	0.0075
827.00	0.0074
828.00	0.0077
829.00	0.0079
830.00	0.0081
831.00	0.0087
832.00	0.0090
833.00	0.0092
834.00	0.0093
835.00	0.0093
836.00	0.0093
837.00	0.0093
838.00	0.0094
839.00	0.0096
840.00	0.0097
841.00	0.0101
842.00	0.0103
843.00	0.0104
844.00	0.0105
845.00	0.0104
846.00	0.0104
847.00	0.0104
848.00	0.0104
849.00	0.0105
850.00	0.0107
851.00	0.0108
852.00	0.0109
853.00	0.0111
854.00	0.0112
855.00	0.0112
856.00	0.0113
857.00	0.0113
858.00	0.0115
859.00	0.0115
860.00	0.0116
861.00	0.0117
862.00	0.0119
863.00	0.0119
864.00	0.0119
865.00	0.0120
866.00	0.0120
867.00	0.0120
868.00	0.0119
869.00	0.0119
870.00	0.0119
871.00	0.0118
872.00	0.0119
873.00	0.0122
874.00	0.0123
875.00	0.0127
876.00	0.0130
877.00	0.0132
878.00	0.0131
879.00	0.0132
880.00	0.0131
881.00	0.0131
882.00	0.0134
883.00	0.0136
884.00	0.0137
885.00	0.0137
886.00	0.0137
887.00	0.0136
888.00	0.0135
889.00	0.0136
890.00	0.0139
891.00	0.0141
892.00	0.0141
893.00	0.0144
894.00	0.0145
895.00	0.0145
896.00	0.0146
897.00	0.0147
898.00	0.0146
899.00	0.0146
900.00	0.0148
901.00	0.0147
902.00	0.0148
903.00	0.0151
904.00	0.0152
905.00	0.0154
906.00	0.0156
907.00	0.0159
908.00	0.0160
909.00	0.0160
910.00	0.0161
911.00	0.0161
912.00	0.0161
913.00	0.0162
914.00	0.0161
915.00	0.0163
916.00	0.0164
917.00	0.0165
918.00	0.0167
919.00	0.0171
920.00	0.0172
921.00	0.0173
922.00	0.0173
923.00	0.0173
924.00	0.0172
925.00	0.0172
926.00	0.0173
927.00	0.0174
928.00	0.0175
929.00	0.0177
930.00	0.0176
931.00	0.0176
932.00	0.0176
933.00	0.0177
934.00	0.0177
935.00	0.0182
936.00	0.0183
937.00	0.0185
938.00	0.0186
939.00	0.0188
940.00	0.0188
941.00	0.0189
942.00	0.0191
943.00	0.0192
944.00	0.0193
945.00	0.0193
946.00	0.0192
947.00	0.0193
948.00	0.0194
949.00	0.0195
950.00	0.0196
951.00	0.0199
952.00	0.0201
953.00	0.0202
954.00	0.0204
955.00	0.0205
956.00	0.0204
957.00	0.0205
958.00	0.0205
959.00	0.0205
960.00	0.0207
961.00	0.0207
962.00	0.0207
963.00	0.0209
964.00	0.0212
965.00	0.0212
966.00	0.0215
967.00	0.0216
968.00	0.0217
969.00	0.0224
970.00	0.0221
971.00	0.0218
972.00	0.0218
973.00	0.0217
974.00	0.0210
975.00	0.0215
976.00	0.0220
977.00	0.0223
978.00	0.0224
979.00	0.0225
980.00	0.0226
981.00	0.0225
982.00	0.0226
983.00	0.0227
984.00	0.0228
985.00	0.0229
986.00	0.0234
987.00	0.0233
988.00	0.0236
989.00	0.0236
990.00	0.0237
991.00	0.0237
992.00	0.0238
993.00	0.0239
994.00	0.0240
995.00	0.0241
996.00	0.0241
997.00	0.0243
998.00	0.0243
999.00	0.0245
1000.00	0.0246
1001.00	0.0242
1002.00	0.0238
1003.00	0.0236
1004.00	0.0236
1005.00	0.0237
1006.00	0.0241
1007.00	0.0247
1008.00	0.0251
1009.00	0.0251
1010.00	0.0253
1011.00	0.0256
1012.00	0.0253
1013.00	0.0251
1014.00	0.0250
1015.00	0.0250
1016.00	0.0248
1017.00	0.0251
1018.00	0.0254
1019.00	0.0256
1020.00	0.0258
1021.00	0.0260
1022.00	0.0260
1023.00	0.0262
1024.00	0.0264
1025.00	0.0261
1026.00	0.0262
1027.00	0.0261
1028.00	0.0262
1029.00	0.0262
1030.00	0.0265
1031.00	0.0265
1032.00	0.0265
1033.00	0.0264
1034.00	0.0266
1035.00	0.0264
1036.00	0.0264
1037.00	0.0266
1038.00	0.0266
1039.00	0.0266
1040.00	0.0267
1041.00	0.0269
1042.00	0.0270
1043.00	0.0272
1044.00	0.0272
1045.00	0.0275
1046.00	0.0275
1047.00	0.0276
1048.00	0.0275
1049.00	0.0275
1050.00	0.0273
1051.00	0.0273
1052.00	0.0272
1053.00	0.0274
1054.00	0.0274
1055.00	0.0277
1056.00	0.0279
1057.00	0.0281
1058.00	0.0287
1059.00	0.0289
1060.00	0.0288
1061.00	0.0290
1062.00	0.0288
1063.00	0.0281
1064.00	0.0281
1065.00	0.0283
1066.00	0.0281
1067.00	0.0285
1068.00	0.0291
1069.00	0.0290
1070.00	0.0290
1071.00	0.0291
1072.00	0.0288
1073.00	0.0285
1074.00	0.0288
1075.00	0.0286
1076.00	0.0288
1077.00	0.0290
1078.00	0.0291
1079.00	0.0290
1080.00	0.0292
1081.00	0.0293
1082.00	0.0293
1083.00	0.0294
1084.00	0.0295
1085.00	0.0295
1086.00	0.0294
1087.00	0.0297
1088.00	0.0296
1089.00	0.0298
1090.00	0.0298
1091.00	0.0301
1092.00	0.0302
1093.00	0.0301
1094.00	0.0300
1095.00	0.0300
1096.00	0.0300
1097.00	0.0299
1098.00	0.0303
1099.00	0.0306
1100.00	0.0308
1101.00	0.0307
1102.00	0.0307
1103.00	0.0307
1104.00	0.0305
1105.00	0.0306
1106.00	0.0308
1107.00	0.0307
1108.00	0.0308
1109.00	0.0309
1110.00	0.0307
1111.00	0.0307
1112.00	0.0307
1113.00	0.0306
1114.00	0.0307
1115.00	0.0306
1116.00	0.0305
1117.00	0.0305
1118.00	0.0306
1119.00	0.0306
1120.00	0.0308
1121.00	0.0309
1122.00	0.0311
1123.00	0.0311
1124.00	0.0311
1125.00	0.0312
1126.00	0.0313
1127.00	0.0314
1128.00	0.0314
1129.00	0.0317
1130.00	0.0317
1131.00	0.0316
1132.00	0.0316
1133.00	0.0318
1134.00	0.0318
1135.00	0.0318
1136.00	0.0319
1137.00	0.0318
1138.00	0.0319
1139.00	0.0319
1140.00	0.0321
1141.00	0.0321
1142.00	0.0320
1143.00	0.0320
1144.00	0.0322
1145.00	0.0322
1146.00	0.0322
1147.00	0.0324
1148.00	0.0325
1149.00	0.0324
1150.00	0.0325
1151.00	0.0327
1152.00	0.0328
1153.00	0.0328
1154.00	0.0327
1155.00	0.0328
1156.00	0.0327
1157.00	0.0328
1158.00	0.0328
1159.00	0.0330
1160.00	0.0330
1161.00	0.0330
1162.00	0.0329
1163.00	0.0331
1164.00	0.0332
1165.00	0.0332
1166.00	0.0331
1167.00	0.0332
1168.00	0.0333
1169.00	0.0335
1170.00	0.0337
1171.00	0.0339
1172.00	0.0339
1173.00	0.0340
1174.00	0.0338
1175.00	0.0338
1176.00	0.0337
1177.00	0.0339
1178.00	0.0338
1179.00	0.0339
1180.00	0.0339
1181.00	0.0340
1182.00	0.0338
1183.00	0.0339
1184.00	0.0343
1185.00	0.0339
1186.00	0.0337
1187.00	0.0339
1188.00	0.0340
1189.00	0.0337
1190.00	0.0342
1191.00	0.0344
1192.00	0.0344
1193.00	0.0342
1194.00	0.0346
1195.00	0.0348
1196.00	0.0350
1197.00	0.0352
1198.00	0.0351
1199.00	0.0350
1200.00	0.0349
1201.00	0.0347
1202.00	0.0347
1203.00	0.0352
1204.00	0.0353
1205.00	0.0353
1206.00	0.0354
1207.00	0.0355
1208.00	0.0356
1209.00	0.0354
1210.00	0.0355
1211.00	0.0356
1212.00	0.0354
1213.00	0.0349
1214.00	0.0349
1215.00	0.0348
1216.00	0.0344
1217.00	0.0347
1218.00	0.0352
1219.00	0.0352
1220.00	0.0355
1221.00	0.0359
1222.00	0.0360
1223.00	0.0360
1224.00	0.0361
1225.00	0.0361
1226.00	0.0360
1227.00	0.0359
1228.00	0.0358
1229.00	0.0358
1230.00	0.0361
1231.00	0.0361
1232.00	0.0367
1233.00	0.0367
1234.00	0.0366
1235.00	0.0366
1236.00	0.0365
1237.00	0.0360
1238.00	0.0361
1239.00	0.0361
1240.00	0.0360
1241.00	0.0362
1242.00	0.0362
1243.00	0.0362
1244.00	0.0363
1245.00	0.0364
1246.00	0.0364
1247.00	0.0364
1248.00	0.0365
1249.00	0.0363
1250.00	0.0362
1251.00	0.0361
1252.00	0.0361
1253.00	0.0361
1254.00	0.0362
1255.00	0.0362
1256.00	0.0361
1257.00	0.0364
1258.00	0.0363
1259.00	0.0362
1260.00	0.0361
1261.00	0.0364
1262.00	0.0361
1263.00	0.0355
1264.00	0.0356
1265.00	0.0358
1266.00	0.0357
1267.00	0.0357
1268.00	0.0366
1269.00	0.0367
1270.00	0.0367
1271.00	0.0366
1272.00	0.0367
1273.00	0.0364
1274.00	0.0365
1275.00	0.0364
1276.00	0.0364
1277.00	0.0362
1278.00	0.0364
1279.00	0.0365
1280.00	0.0365
1281.00	0.0367
1282.00	0.0369
1283.00	0.0369
1284.00	0.0367
1285.00	0.0365
1286.00	0.0362
1287.00	0.0364
1288.00	0.0360
1289.00	0.0359
1290.00	0.0363
1291.00	0.0362
1292.00	0.0362
1293.00	0.0365
1294.00	0.0366
1295.00	0.0365
1296.00	0.0367
1297.00	0.0366
1298.00	0.0367
1299.00	0.0367
1300.00	0.0366
1301.00	0.0367
1302.00	0.0366
1303.00	0.0367
1304.00	0.0370
1305.00	0.0370
1306.00	0.0369
1307.00	0.0369
1308.00	0.0366
1309.00	0.0366
1310.00	0.0366
1311.00	0.0364
1312.00	0.0365
1313.00	0.0364
1314.00	0.0364
1315.00	0.0365
1316.00	0.0366
1317.00	0.0365
1318.00	0.0365
1319.00	0.0366
1320.00	0.0365
1321.00	0.0360
1322.00	0.0363
1323.00	0.0364
1324.00	0.0363
1325.00	0.0363
1326.00	0.0367
1327.00	0.0364
1328.00	0.0364
1329.00	0.0363
1330.00	0.0365
1331.00	0.0365
1332.00	0.0364
1333.00	0.0364
1334.00	0.0365
1335.00	0.0363
1336.00	0.0365
1337.00	0.0365
1338.00	0.0364
1339.00	0.0363
1340.00	0.0363
1341.00	0.0364
1342.00	0.0364
1343.00	0.0366
1344.00	0.0366
1345.00	0.0370
1346.00	0.0367
1347.00	0.0368
1348.00	0.0368
1349.00	0.0366
1350.00	0.0364
1351.00	0.0372
1352.00	0.0373
1353.00	0.0378
1354.00	0.0381
1355.00	0.0378
1356.00	0.0370
1357.00	0.0370
1358.00	0.0365
1359.00	0.0363
1360.00	0.0365
1361.00	0.0366
1362.00	0.0365
1363.00	0.0365
1364.00	0.0366
1365.00	0.0370
1366.00	0.0370
1367.00	0.0372
1368.00	0.0372
1369.00	0.0372
1370.00	0.0370
1371.00	0.0371
1372.00	0.0370
1373.00	0.0369
1374.00	0.0372
1375.00	0.0372
1376.00	0.0374
1377.00	0.0377
1378.00	0.0381
1379.00	0.0380
1380.00	0.0381
1381.00	0.0380
1382.00	0.0378
1383.00	0.0375
1384.00	0.0377
1385.00	0.0377
1386.00	0.0376
1387.00	0.0379
1388.00	0.0381
1389.00	0.0380
1390.00	0.0378
1391.00	0.0379
1392.00	0.0379
1393.00	0.0376
1394.00	0.0375
1395.00	0.0376
1396.00	0.0377
1397.00	0.0377
1398.00	0.0378
1399.00	0.0378
1400.00	0.0381
1401.00	0.0381
1402.00	0.0381
1403.00	0.0380
1404.00	0.0379
1405.00	0.0377
1406.00	0.0376
1407.00	0.0376
1408.00	0.0379
1409.00	0.0380
1410.00	0.0375
1411.00	0.0373
1412.00	0.0373
1413.00	0.0373
1414.00	0.0373
1415.00	0.0378
1416.00	0.0377
1417.00	0.0376
1418.00	0.0377
1419.00	0.0378
1420.00	0.0375
1421.00	0.0378
1422.00	0.0379
1423.00	0.0377
1424.00	0.0377
1425.00	0.0378
1426.00	0.0380
1427.00	0.0380
1428.00	0.0379
1429.00	0.0374
1430.00	0.0368
1431.00	0.0366
1432.00	0.0366
1433.00	0.0366
1434.00	0.0369
1435.00	0.0377
1436.00	0.0378
1437.00	0.0378
1438.00	0.0379
1439.00	0.0379
1440.00	0.0378
1441.00	0.0377
1442.00	0.0375
1443.00	0.0372
1444.00	0.0372
1445.00	0.0370
1446.00	0.0369
1447.00	0.0369
1448.00	0.0373
1449.00	0.0374
1450.00	0.0375
1451.00	0.0377
1452.00	0.0378
1453.00	0.0376
1454.00	0.0374
1455.00	0.0373
1456.00	0.0371
1457.00	0.0370
1458.00	0.0372
1459.00	0.0369
1460.00	0.0365
1461.00	0.0366
1462.00	0.0368
1463.00	0.0368
1464.00	0.0370
1465.00	0.0373
1466.00	0.0372
1467.00	0.0368
1468.00	0.0366
1469.00	0.0365
1470.00	0.0368
1471.00	0.0373
1472.00	0.0376
1473.00	0.0375
1474.00	0.0377
1475.00	0.0372
1476.00	0.0362
1477.00	0.0360
1478.00	0.0359
1479.00	0.0359
1480.00	0.0361
1481.00	0.0365
1482.00	0.0365
1483.00	0.0370
1484.00	0.0370
1485.00	0.0373
1486.00	0.0369
1487.00	0.0368
1488.00	0.0369
1489.00	0.0368
1490.00	0.0361
1491.00	0.0363
1492.00	0.0363
1493.00	0.0361
1494.00	0.0362
1495.00	0.0366
1496.00	0.0370
1497.00	0.0373
1498.00	0.0370
1499.00	0.0370
1500.00	0.0370
1501.00	0.0369
1502.00	0.0368
1503.00	0.0369
1504.00	0.0366
1505.00	0.0366
1506.00	0.0367
1507.00	0.0368
1508.00	0.0370
1509.00	0.0374
1510.00	0.0374
1511.00	0.0373
1512.00	0.0373
1513.00	0.0372
1514.00	0.0373
1515.00	0.0374
1516.00	0.0370
1517.00	0.0371
1518.00	0.0372
1519.00	0.0371
1520.00	0.0369
1521.00	0.0371
1522.00	0.0370
1523.00	0.0370
1524.00	0.0369
1525.00	0.0370
1526.00	0.0371
1527.00	0.0372
1528.00	0.0371
1529.00	0.0369
1530.00	0.0369
1531.00	0.0367
1532.00	0.0369
1533.00	0.0366
1534.00	0.0367
1535.00	0.0368
1536.00	0.0367
1537.00	0.0364
1538.00	0.0364
1539.00	0.0365
1540.00	0.0365
1541.00	0.0366
1542.00	0.0366
1543.00	0.0368
1544.00	0.0369
1545.00	0.0370
1546.00	0.0369
1547.00	0.0368
1548.00	0.0366
1549.00	0.0363
1550.00	0.0365
1551.00	0.0363
1552.00	0.0362
1553.00	0.0363
1554.00	0.0365
1555.00	0.0361
1556.00	0.0363
1557.00	0.0365
1558.00	0.0363
1559.00	0.0362
1560.00	0.0364
1561.00	0.0365
1562.00	0.0366
1563.00	0.0369
1564.00	0.0368
1565.00	0.0369
1566.00	0.0370
1567.00	0.0365
1568.00	0.0360
1569.00	0.0361
1570.00	0.0360
1571.00	0.0359
1572.00	0.0361
1573.00	0.0364
1574.00	0.0365
1575.00	0.0366
1576.00	0.0366
1577.00	0.0367
1578.00	0.0370
1579.00	0.0369
1580.00	0.0366
1581.00	0.0367
1582.00	0.0364
1583.00	0.0362
1584.00	0.0362
1585.00	0.0362
1586.00	0.0361
1587.00	0.0363
1588.00	0.0365
1589.00	0.0366
1590.00	0.0367
1591.00	0.0368
1592.00	0.0369
1593.00	0.0366
1594.00	0.0365
1595.00	0.0366
1596.00	0.0367
1597.00	0.0368
1598.00	0.0370
1599.00	0.0370
1600.00	0.0371
1601.00	0.0372
1602.00	0.0372
1603.00	0.0371
1604.00	0.0371
1605.00	0.0371
1606.00	0.0370
1607.00	0.0368
1608.00	0.0369
1609.00	0.0372
1610.00	0.0371
1611.00	0.0371
1612.00	0.0374
1613.00	0.0371
1614.00	0.0371
1615.00	0.0371
1616.00	0.0371
1617.00	0.0371
1618.00	0.0373
1619.00	0.0371
1620.00	0.0370
1621.00	0.0369
1622.00	0.0369
1623.00	0.0367
1624.00	0.0368
1625.00	0.0375
1626.00	0.0372
1627.00	0.0374
1628.00	0.0377
1629.00	0.0374
1630.00	0.0368
1631.00	0.0374
1632.00	0.0370
1633.00	0.0368
1634.00	0.0369
1635.00	0.0367
1636.00	0.0365
1637.00	0.0366
1638.00	0.0366
1639.00	0.0365
1640.00	0.0365
1641.00	0.0362
1642.00	0.0360
1643.00	0.0358
1644.00	0.0357
1645.00	0.0352
1646.00	0.0348
1647.00	0.0345
1648.00	0.0342
1649.00	0.0337
1650.00	0.0333
1651.00	0.0331
1652.00	0.0327
1653.00	0.0322
1654.00	0.0319
1655.00	0.0317
1656.00	0.0313
1657.00	0.0310
1658.00	0.0309
1659.00	0.0308
1660.00	0.0306
1661.00	0.0308
1662.00	0.0309
1663.00	0.0309
1664.00	0.0307
1665.00	0.0304
1666.00	0.0304
1667.00	0.0302
1668.00	0.0302
1669.00	0.0302
1670.00	0.0304
1671.00	0.0301
1672.00	0.0301
1673.00	0.0301
1674.00	0.0300
1675.00	0.0300
1676.00	0.0302
1677.00	0.0300
1678.00	0.0296
1679.00	0.0294
1680.00	0.0295
1681.00	0.0295
1682.00	0.0296
1683.00	0.0299
1684.00	0.0300
1685.00	0.0301
1686.00	0.0301
1687.00	0.0302
1688.00	0.0302
1689.00	0.0303
1690.00	0.0300
1691.00	0.0297
1692.00	0.0294
1693.00	0.0290
1694.00	0.0289
1695.00	0.0289
1696.00	0.0291
1697.00	0.0292
1698.00	0.0298
1699.00	0.0301
1700.00	0.0298
1701.00	0.0301
1702.00	0.0302
1703.00	0.0299
1704.00	0.0294
1705.00	0.0294
1706.00	0.0292
1707.00	0.0291
1708.00	0.0290
1709.00	0.0292
1710.00	0.0293
1711.00	0.0294
1712.00	0.0294
1713.00	0.0296
1714.00	0.0298
1715.00	0.0299
1716.00	0.0301
1717.00	0.0300
1718.00	0.0298
1719.00	0.0298
1720.00	0.0299
1721.00	0.0295
1722.00	0.0296
1723.00	0.0297
1724.00	0.0296
1725.00	0.0295
1726.00	0.0297
1727.00	0.0297
1728.00	0.0301
1729.00	0.0303
1730.00	0.0303
1731.00	0.0304
1732.00	0.0301
1733.00	0.0300
1734.00	0.0297
1735.00	0.0297
1736.00	0.0297
1737.00	0.0298
1738.00	0.0296
1739.00	0.0299
1740.00	0.0299
1741.00	0.0299
1742.00	0.0300
1743.00	0.0302
1744.00	0.0300
1745.00	0.0299
1746.00	0.0300
1747.00	0.0298
1748.00	0.0298
1749.00	0.0297
1750.00	0.0299
1751.00	0.0297
1752.00	0.0298
1753.00	0.0298
1754.00	0.0300
1755.00	0.0301
1756.00	0.0302
1757.00	0.0303
1758.00	0.0303
1759.00	0.0301
1760.00	0.0299
1761.00	0.0298
1762.00	0.0296
1763.00	0.0296
1764.00	0.0298
1765.00	0.0298
1766.00	0.0297
1767.00	0.0299
1768.00	0.0301
1769.00	0.0302
1770.00	0.0303
1771.00	0.0304
1772.00	0.0304
1773.00	0.0300
1774.00	0.0301
1775.00	0.0300
1776.00	0.0298
1777.00	0.0296
1778.00	0.0294
1779.00	0.0290
1780.00	0.0291
1781.00	0.0293
1782.00	0.0296
1783.00	0.0298
1784.00	0.0301
1785.00	0.0300
1786.00	0.0296
1787.00	0.0295
1788.00	0.0294
1789.00	0.0292
1790.00	0.0292
1791.00	0.0293
1792.00	0.0293
1793.00	0.0293
1794.00	0.0296
1795.00	0.0297
1796.00	0.0299
1797.00	0.0299
1798.00	0.0300
1799.00	0.0297
1800.00	0.0294
1801.00	0.0294
1802.00	0.0295
1803.00	0.0297
1804.00	0.0301
1805.00	0.0302
1806.00	0.0301
1807.00	0.0300
1808.00	0.0301
1809.00	0.0298
1810.00	0.0300
1811.00	0.0299
1812.00	0.0298
1813.00	0.0294
1814.00	0.0293
1815.00	0.0292
1816.00	0.0288
1817.00	0.0286
1818.00	0.0283
1819.00	0.0285
1820.00	0.0282
1821.00	0.0285
1822.00	0.0287
1823.00	0.0291
1824.00	0.0291
1825.00	0.0294
1826.00	0.0297
1827.00	0.0295
1828.00	0.0294
1829.00	0.0292
1830.00	0.0291
1831.00	0.0291
1832.00	0.0293
1833.00	0.0296
1834.00	0.0297
1835.00	0.0296
1836.00	0.0297
1837.00	0.0298
1838.00	0.0298
1839.00	0.0298
1840.00	0.0299
1841.00	0.0298
1842.00	0.0296
1843.00	0.0295
1844.00	0.0292
1845.00	0.0292
1846.00	0.0290
1847.00	0.0289
1848.00	0.0286
1849.00	0.0282
1850.00	0.0281
1851.00	0.0276
1852.00	0.0271
1853.00	0.0271
1854.00	0.0276
1855.00	0.0277
1856.00	0.0282
1857.00	0.0290
1858.00	0.0291
1859.00	0.0287
1860.00	0.0287
1861.00	0.0289
1862.00	0.0285
1863.00	0.0284
1864.00	0.0287
1865.00	0.0287
1866.00	0.0285
1867.00	0.0287
1868.00	0.0291
1869.00	0.0293
1870.00	0.0293
1871.00	0.0294
1872.00	0.0295
1873.00	0.0293
1874.00	0.0295
1875.00	0.0295
1876.00	0.0297
1877.00	0.0297
1878.00	0.0292
1879.00	0.0291
1880.00	0.0291
1881.00	0.0289
1882.00	0.0287
1883.00	0.0290
1884.00	0.0290
1885.00	0.0289
1886.00	0.0286
1887.00	0.0287
1888.00	0.0284
1889.00	0.0284
1890.00	0.0284
1891.00	0.0285
1892.00	0.0282
1893.00	0.0284
1894.00	0.0283
1895.00	0.0281
1896.00	0.0282
1897.00	0.0285
1898.00	0.0285
1899.00	0.0286
1900.00	0.0287
1901.00	0.0290
1902.00	0.0291
1903.00	0.0290
1904.00	0.0289
1905.00	0.0291
1906.00	0.0291
1907.00	0.0288
1908.00	0.0288
1909.00	0.0290
1910.00	0.0290
1911.00	0.0291
1912.00	0.0293
1913.00	0.0294
1914.00	0.0295
1915.00	0.0297
1916.00	0.0296
1917.00	0.0298
1918.00	0.0296
1919.00	0.0293
1920.00	0.0290
1921.00	0.0286
1922.00	0.0284
1923.00	0.0287
1924.00	0.0289
1925.00	0.0288
1926.00	0.0291
1927.00	0.0291
1928.00	0.0288
1929.00	0.0285
1930.00	0.0285
1931.00	0.0284
1932.00	0.0283
1933.00	0.0285
1934.00	0.0285
1935.00	0.0286
1936.00	0.0282
1937.00	0.0284
1938.00	0.0285
1939.00	0.0286
1940.00	0.0285
1941.00	0.0289
1942.00	0.0289
1943.00	0.0287
1944.00	0.0286
1945.00	0.0287
1946.00	0.0288
1947.00	0.0286
1948.00	0.0285
1949.00	0.0287
1950.00	0.0285
1951.00	0.0279
1952.00	0.0279
1953.00	0.0282
1954.00	0.0284
1955.00	0.0284
1956.00	0.0289
1957.00	0.0289
1958.00	0.0287
1959.00	0.0285
1960.00	0.0286
1961.00	0.0285
1962.00	0.0284
1963.00	0.0283
1964.00	0.0280
1965.00	0.0279
1966.00	0.0276
1967.00	0.0276
1968.00	0.0279
1969.00	0.0282
1970.00	0.0281
1971.00	0.0284
1972.00	0.0283
1973.00	0.0278
1974.00	0.0280
1975.00	0.0282
1976.00	0.0283
1977.00	0.0281
1978.00	0.0284
1979.00	0.0283
1980.00	0.0282
1981.00	0.0278
1982.00	0.0280
1983.00	0.0280
1984.00	0.0278
1985.00	0.0278
1986.00	0.0280
1987.00	0.0282
1988.00	0.0281
1989.00	0.0283
1990.00	0.0283
1991.00	0.0286
1992.00	0.0287
1993.00	0.0286
1994.00	0.0285
1995.00	0.0283
1996.00	0.0280
1997.00	0.0278
1998.00	0.0281
1999.00	0.0279
2000.00	0.0282
2001.00	0.0285
2002.00	0.0284
2003.00	0.0281
2004.00	0.0281
2005.00	0.0282
2006.00	0.0281
2007.00	0.0282
2008.00	0.0283
2009.00	0.0286
2010.00	0.0284
2011.00	0.0281
2012.00	0.0280
2013.00	0.0282
2014.00	0.0280
2015.00	0.0280
2016.00	0.0279
2017.00	0.0276
2018.00	0.0275
2019.00	0.0274
2020.00	0.0273
2021.00	0.0276
2022.00	0.0278
2023.00	0.0281
2024.00	0.0282
2025.00	0.0281
2026.00	0.0281
2027.00	0.0278
2028.00	0.0274
2029.00	0.0273
2030.00	0.0276
2031.00	0.0277
2032.00	0.0279
2033.00	0.0280
2034.00	0.0280
2035.00	0.0281
2036.00	0.0281
2037.00	0.0282
2038.00	0.0281
2039.00	0.0281
2040.00	0.0279
2041.00	0.0277
2042.00	0.0273
2043.00	0.0271
2044.00	0.0273
2045.00	0.0275
2046.00	0.0275
2047.00	0.0278
2048.00	0.0274
2049.00	0.0272
2050.00	0.0267
2051.00	0.0267
2052.00	0.0269
2053.00	0.0275
2054.00	0.0277
2055.00	0.0280
2056.00	0.0282
2057.00	0.0281
2058.00	0.0279
2059.00	0.0277
2060.00	0.0278
2061.00	0.0276
2062.00	0.0276
2063.00	0.0278
2064.00	0.0278
2065.00	0.0277
2066.00	0.0277
2067.00	0.0278
2068.00	0.0278
2069.00	0.0280
2070.00	0.0279
2071.00	0.0277
2072.00	0.0274
2073.00	0.0270
2074.00	0.0268
2075.00	0.0267
2076.00	0.0267
2077.00	0.0266
2078.00	0.0271
2079.00	0.0272
2080.00	0.0272
2081.00	0.0272
2082.00	0.0274
2083.00	0.0273
2084.00	0.0272
2085.00	0.0273
2086.00	0.0277
2087.00	0.0277
2088.00	0.0274
2089.00	0.0272
2090.00	0.0273
2091.00	0.0273
2092.00	0.0272
2093.00	0.0272
2094.00	0.0274
2095.00	0.0269
2096.00	0.0266
2097.00	0.0263
2098.00	0.0263
2099.00	0.0265
2100.00	0.0268
2101.00	0.0267
2102.00	0.0267
2103.00	0.0266
2104.00	0.0263
2105.00	0.0258
2106.00	0.0256
2107.00	0.0258
2108.00	0.0257
2109.00	0.0259
2110.00	0.0260
2111.00	0.0263
2112.00	0.0265
2113.00	0.0265
2114.00	0.0265
2115.00	0.0268
2116.00	0.0269
2117.00	0.0268
2118.00	0.0269
2119.00	0.0269
2120.00	0.0268
2121.00	0.0263
2122.00	0.0265
2123.00	0.0264
2124.00	0.0263
2125.00	0.0263
2126.00	0.0266
2127.00	0.0260
2128.00	0.0261
2129.00	0.0261
2130.00	0.0263
2131.00	0.0262
2132.00	0.0268
2133.00	0.0269
2134.00	0.0271
2135.00	0.0270
2136.00	0.0269
2137.00	0.0266
2138.00	0.0264
2139.00	0.0264
2140.00	0.0262
2141.00	0.0263
2142.00	0.0266
2143.00	0.0267
2144.00	0.0266
2145.00	0.0270
2146.00	0.0271
2147.00	0.0273
2148.00	0.0273
2149.00	0.0272
2150.00	0.0268
2151.00	0.0267
2152.00	0.0267
2153.00	0.0265
2154.00	0.0261
2155.00	0.0262
2156.00	0.0259
2157.00	0.0257
2158.00	0.0257
2159.00	0.0261
2160.00	0.0260
2161.00	0.0258
2162.00	0.0253
2163.00	0.0256
2164.00	0.0254
2165.00	0.0257
2166.00	0.0263
2167.00	0.0268
2168.00	0.0269
2169.00	0.0268
2170.00	0.0264
2171.00	0.0262
2172.00	0.0265
2173.00	0.0264
2174.00	0.0266
2175.00	0.0266
2176.00	0.0269
2177.00	0.0267
2178.00	0.0266
2179.00	0.0262
2180.00	0.0268
2181.00	0.0268
2182.00	0.0267
2183.00	0.0267
2184.00	0.0275
2185.00	0.0272
2186.00	0.0270
2187.00	0.0269
2188.00	0.0271
2189.00	0.0272
2190.00	0.0272
2191.00	0.0272
2192.00	0.0273
2193.00	0.0272
2194.00	0.0268
2195.00	0.0267
2196.00	0.0268
2197.00	0.0273
2198.00	0.0276
2199.00	0.0280
2200.00	0.0283
2201.00	0.0287
2202.00	0.0287
2203.00	0.0289
2204.00	0.0289
2205.00	0.0287
2206.00	0.0286
2207.00	0.0283
2208.00	0.0279
2209.00	0.0277
2210.00	0.0282
2211.00	0.0281
2212.00	0.0280
2213.00	0.0279
2214.00	0.0278
2215.00	0.0279
2216.00	0.0279
2217.00	0.0276
2218.00	0.0278
2219.00	0.0279
2220.00	0.0277
2221.00	0.0271
2222.00	0.0273
2223.00	0.0272
2224.00	0.0268
2225.00	0.0265
2226.00	0.0272
2227.00	0.0268
2228.00	0.0269
2229.00	0.0266
2230.00	0.0262
2231.00	0.0261
2232.00	0.0267
2233.00	0.0264
2234.00	0.0271
2235.00	0.0276
2236.00	0.0275
2237.00	0.0272
2238.00	0.0270
2239.00	0.0272
2240.00	0.0274
2241.00	0.0279
2242.00	0.0280
2243.00	0.0285
2244.00	0.0286
2245.00	0.0285
2246.00	0.0280
2247.00	0.0281
2248.00	0.0282
2249.00	0.0273
2250.00	0.0271
2251.00	0.0273
2252.00	0.0273
2253.00	0.0274
2254.00	0.0277
2255.00	0.0278
2256.00	0.0279
2257.00	0.0282
2258.00	0.0283
2259.00	0.0282
2260.00	0.0282
2261.00	0.0279
2262.00	0.0275
2263.00	0.0271
2264.00	0.0272
2265.00	0.0269
2266.00	0.0269
2267.00	0.0269
2268.00	0.0269
2269.00	0.0269
2270.00	0.0268
2271.00	0.0267
2272.00	0.0268
2273.00	0.0265
2274.00	0.0263
2275.00	0.0266
2276.00	0.0265
2277.00	0.0265
2278.00	0.0267
2279.00	0.0267
2280.00	0.0262
2281.00	0.0260
2282.00	0.0257
2283.00	0.0254
2284.00	0.0253
2285.00	0.0253
2286.00	0.0255
2287.00	0.0257
2288.00	0.0259
2289.00	0.0260
2290.00	0.0260
2291.00	0.0255
2292.00	0.0256
2293.00	0.0254
2294.00	0.0253
2295.00	0.0253
2296.00	0.0255
2297.00	0.0255
2298.00	0.0256
2299.00	0.0256
2300.00	0.0254
2301.00	0.0254
2302.00	0.0252
2303.00	0.0251
2304.00	0.0253
2305.00	0.0255
2306.00	0.0256
2307.00	0.0258
2308.00	0.0259
2309.00	0.0259
2310.00	0.0257
2311.00	0.0254
2312.00	0.0253
2313.00	0.0250
2314.00	0.0244
2315.00	0.0243
2316.00	0.0244
2317.00	0.0241
2318.00	0.0243
2319.00	0.0245
2320.00	0.0250
2321.00	0.0251
2322.00	0.0253
2323.00	0.0253
2324.00	0.0255
2325.00	0.0251
2326.00	0.0250
2327.00	0.0248
2328.00	0.0244
2329.00	0.0244
2330.00	0.0247
2331.00	0.0248
2332.00	0.0250
2333.00	0.0253
2334.00	0.0253
2335.00	0.0248
2336.00	0.0249
2337.00	0.0246
2338.00	0.0247
2339.00	0.0246
2340.00	0.0248
2341.00	0.0244
2342.00	0.0249
2343.00	0.0248
2344.00	0.0250
2345.00	0.0249
2346.00	0.0252
2347.00	0.0247
2348.00	0.0249
2349.00	0.0245
2350.00	0.0246
2351.00	0.0247
2352.00	0.0252
2353.00	0.0250
2354.00	0.0252
2355.00	0.0252
2356.00	0.0248
2357.00	0.0247
2358.00	0.0248
2359.00	0.0247
2360.00	0.0247
2361.00	0.0251
2362.00	0.0249
2363.00	0.0248
2364.00	0.0246
2365.00	0.0241
2366.00	0.0241
2367.00	0.0242
2368.00	0.0239
2369.00	0.0237
2370.00	0.0242
2371.00	0.0242
2372.00	0.0239
2373.00	0.0239
2374.00	0.0244
2375.00	0.0244
2376.00	0.0244
2377.00	0.0248
2378.00	0.0250
2379.00	0.0252
2380.00	0.0250
2381.00	0.0248
2382.00	0.0245
2383.00	0.0244
2384.00	0.0239
2385.00	0.0239
2386.00	0.0244
2387.00	0.0246
2388.00	0.0246
2389.00	0.0245
2390.00	0.0244
2391.00	0.0242
2392.00	0.0240
2393.00	0.0243
2394.00	0.0241
2395.00	0.0244
2396.00	0.0244
2397.00	0.0247
2398.00	0.0246
2399.00	0.0250
2400.00	0.0248
2401.00	0.0246
2402.00	0.0244
2403.00	0.0241
2404.00	0.0241
2405.00	0.0243
2406.00	0.0243
2407.00	0.0242
2408.00	0.0243
2409.00	0.0244
2410.00	0.0243
2411.00	0.0244
2412.00	0.0244
2413.00	0.0243
2414.00	0.0243
2415.00	0.0245
2416.00	0.0244
2417.00	0.0245
2418.00	0.0248
2419.00	0.0250
2420.00	0.0246
2421.00	0.0242
2422.00	0.0241
2423.00	0.0236
2424.00	0.0231
2425.00	0.0234
2426.00	0.0237
2427.00	0.0237
2428.00	0.0242
2429.00	0.0245
2430.00	0.0243
2431.00	0.0243
2432.00	0.0242
2433.00	0.0238
2434.00	0.0238
2435.00	0.0240
2436.00	0.0239
2437.00	0.0239
2438.00	0.0239
2439.00	0.0239
2440.00	0.0241
2441.00	0.0243
2442.00	0.0246
2443.00	0.0247
2444.00	0.0247
2445.00	0.0246
2446.00	0.0244
2447.00	0.0242
2448.00	0.0244
2449.00	0.0243
2450.00	0.0240
2451.00	0.0242
2452.00	0.0245
2453.00	0.0243
2454.00	0.0239
2455.00	0.0244
2456.00	0.0243
2457.00	0.0242
2458.00	0.0242
2459.00	0.0248
2460.00	0.0242
2461.00	0.0242
2462.00	0.0241
2463.00	0.0240
2464.00	0.0238
2465.00	0.0238
2466.00	0.0237
2467.00	0.0237
2468.00	0.0236
2469.00	0.0237
2470.00	0.0238
2471.00	0.0237
2472.00	0.0239
2473.00	0.0238
2474.00	0.0240
2475.00	0.0242
2476.00	0.0242
2477.00	0.0239
2478.00	0.0238
2479.00	0.0239
2480.00	0.0240
2481.00	0.0242
2482.00	0.0238
2483.00	0.0237
2484.00	0.0232
2485.00	0.0228
2486.00	0.0227
2487.00	0.0230
2488.00	0.0234
2489.00	0.0236
2490.00	0.0234
2491.00	0.0230
2492.00	0.0228
2493.00	0.0228
2494.00	0.0228
2495.00	0.0227
2496.00	0.0233
2497.00	0.0233
2498.00	0.0228
2499.00	0.0231
2500.00	0.0235
2501.00	0.0237
2502.00	0.0237
2503.00	0.0239
2504.00	0.0245
2505.00	0.0245
2506.00	0.0247
2507.00	0.0248
2508.00	0.0247
2509.00	0.0249
2510.00	0.0249
2511.00	0.0250
2512.00	0.0249
2513.00	0.0250
2514.00	0.0250
2515.00	0.0252
2516.00	0.0252
2517.00	0.0254
2518.00	0.0254
2519.00	0.0257
2520.00	0.0257
2521.00	0.0257
2522.00	0.0255
2523.00	0.0255
2524.00	0.0253
2525.00	0.0251
2526.00	0.0250
2527.00	0.0248
2528.00	0.0248
2529.00	0.0251
2530.00	0.0251
2531.00	0.0252
2532.00	0.0253
2533.00	0.0254
2534.00	0.0256
2535.00	0.0253
2536.00	0.0254
2537.00	0.0254
2538.00	0.0254
2539.00	0.0257
2540.00	0.0258
2541.00	0.0259
2542.00	0.0261
2543.00	0.0261
2544.00	0.0260
2545.00	0.0258
2546.00	0.0252
2547.00	0.0248
2548.00	0.0244
2549.00	0.0241
2550.00	0.0238
2551.00	0.0236
2552.00	0.0234
2553.00	0.0236
2554.00	0.0233
2555.00	0.0233
2556.00	0.0236
2557.00	0.0237
2558.00	0.0241
2559.00	0.0246
2560.00	0.0251
2561.00	0.0260
2562.00	0.0267
2563.00	0.0269
2564.00	0.0273
2565.00	0.0271
2566.00	0.0273
2567.00	0.0271
2568.00	0.0265
2569.00	0.0263
2570.00	0.0260
2571.00	0.0256
2572.00	0.0256
2573.00	0.0258
2574.00	0.0255
2575.00	0.0255
2576.00	0.0251
2577.00	0.0250
2578.00	0.0251
2579.00	0.0249
2580.00	0.0246
2581.00	0.0247
2582.00	0.0249
2583.00	0.0248
2584.00	0.0248
2585.00	0.0249
2586.00	0.0249
2587.00	0.0252
2588.00	0.0254
2589.00	0.0255
2590.00	0.0258
2591.00	0.0263
2592.00	0.0263
2593.00	0.0268
2594.00	0.0262
2595.00	0.0259
2596.00	0.0256
2597.00	0.0251
2598.00	0.0244
2599.00	0.0249
2600.00	0.0246
2601.00	0.0251
2602.00	0.0252
2603.00	0.0255
2604.00	0.0261
2605.00	0.0263
2606.00	0.0259
2607.00	0.0261
2608.00	0.0258
2609.00	0.0259
2610.00	0.0262
2611.00	0.0260
2612.00	0.0259
2613.00	0.0262
2614.00	0.0261
2615.00	0.0263
2616.00	0.0263
2617.00	0.0257
2618.00	0.0258
2619.00	0.0262
2620.00	0.0258
2621.00	0.0255
2622.00	0.0252
2623.00	0.0252
2624.00	0.0252
2625.00	0.0255
2626.00	0.0254
2627.00	0.0254
2628.00	0.0259
2629.00	0.0260
2630.00	0.0261
2631.00	0.0264
2632.00	0.0263
2633.00	0.0263
2634.00	0.0266
2635.00	0.0267
2636.00	0.0269
2637.00	0.0271
2638.00	0.0272
2639.00	0.0273
2640.00	0.0273
2641.00	0.0271
2642.00	0.0267
2643.00	0.0266
2644.00	0.0266
2645.00	0.0264
2646.00	0.0264
2647.00	0.0264
2648.00	0.0264
2649.00	0.0265
2650.00	0.0265
2651.00	0.0263
2652.00	0.0262
2653.00	0.0257
2654.00	0.0252
2655.00	0.0251
2656.00	0.0246
2657.00	0.0244
2658.00	0.0245
2659.00	0.0245
2660.00	0.0244
2661.00	0.0253
2662.00	0.0256
2663.00	0.0264
2664.00	0.0274
2665.00	0.0279
2666.00	0.0298
2667.00	0.0319
2668.00	0.0325
2669.00	0.0340
2670.00	0.0361
2671.00	0.0378
2672.00	0.0396
2673.00	0.0401
2674.00	0.0413
2675.00	0.0420
2676.00	0.0438
2677.00	0.0445
2678.00	0.0451
2679.00	0.0460
2680.00	0.0472
2681.00	0.0485
2682.00	0.0512
2683.00	0.0529
2684.00	0.0551
2685.00	0.0579
2686.00	0.0610
2687.00	0.0635
2688.00	0.0665
2689.00	0.0694
2690.00	0.0729
2691.00	0.0765
2692.00	0.0792
2693.00	0.0844
2694.00	0.0899
2695.00	0.0944
2696.00	0.0993
2697.00	0.1048
2698.00	0.1098
2699.00	0.1158
2700.00	0.1191
2701.00	0.1230
2702.00	0.1267
2703.00	0.1301
2704.00	0.1339
2705.00	0.1385
2706.00	0.1417
2707.00	0.1455
2708.00	0.1465
2709.00	0.1488
2710.00	0.1511
2711.00	0.1529
2712.00	0.1544
2713.00	0.1559
2714.00	0.1555
2715.00	0.1570
2716.00	0.1559
2717.00	0.1543
2718.00	0.1534
2719.00	0.1550
2720.00	0.1549
2721.00	0.1541
2722.00	0.1525
2723.00	0.1520
2724.00	0.1515
2725.00	0.1535
2726.00	0.1492
2727.00	0.1481
2728.00	0.1467
2729.00	0.1454
2730.00	0.1421
2731.00	0.1405
2732.00	0.1389
2733.00	0.1375
2734.00	0.1347
2735.00	0.1316
2736.00	0.1285
2737.00	0.1294
2738.00	0.1275
2739.00	0.1283
2740.00	0.1268
2741.00	0.1287
2742.00	0.1263
2743.00	0.1251
2744.00	0.1255
2745.00	0.1251
2746.00	0.1251
2747.00	0.1237
2748.00	0.1233
2749.00	0.1225
2750.00	0.1202
2751.00	0.1188
2752.00	0.1161
2753.00	0.1150
2754.00	0.1138
2755.00	0.1115
2756.00	0.1095
2757.00	0.1067
2758.00	0.1052
2759.00	0.1035
2760.00	0.1025
2761.00	0.1004
2762.00	0.0984
2763.00	0.0968
2764.00	0.0963
2765.00	0.0942
2766.00	0.0929
2767.00	0.0914
2768.00	0.0910
2769.00	0.0896
2770.00	0.0882
2771.00	0.0868
2772.00	0.0866
2773.00	0.0854
2774.00	0.0844
2775.00	0.0830
2776.00	0.0821
2777.00	0.0812
2778.00	0.0803
2779.00	0.0789
2780.00	0.0774
2781.00	0.0758
2782.00	0.0747
2783.00	0.0727
2784.00	0.0720
2785.00	0.0706
2786.00	0.0696
2787.00	0.0690
2788.00	0.0679
2789.00	0.0671
2790.00	0.0665
2791.00	0.0661
2792.00	0.0654
2793.00	0.0645
2794.00	0.0640
2795.00	0.0632
2796.00	0.0623
2797.00	0.0611
2798.00	0.0602
2799.00	0.0592
2800.00	0.0581
2801.00	0.0568
2802.00	0.0558
2803.00	0.0550
2804.00	0.0543
2805.00	0.0534
2806.00	0.0523
2807.00	0.0517
2808.00	0.0515
2809.00	0.0505
2810.00	0.0499
2811.00	0.0491
2812.00	0.0482
2813.00	0.0476
2814.00	0.0467
2815.00	0.0459
2816.00	0.0451
2817.00	0.0447
2818.00	0.0439
2819.00	0.0427
2820.00	0.0426
2821.00	0.0421
2822.00	0.0417
2823.00	0.0415
2824.00	0.0411
2825.00	0.0408
2826.00	0.0404
2827.00	0.0400
2828.00	0.0399
2829.00	0.0395
2830.00	0.0394
2831.00	0.0386
2832.00	0.0381
2833.00	0.0377
2834.00	0.0372
2835.00	0.0370
2836.00	0.0367
2837.00	0.0360
2838.00	0.0356
2839.00	0.0351
2840.00	0.0347
2841.00	0.0345
2842.00	0.0342
2843.00	0.0337
2844.00	0.0333
2845.00	0.0330
2846.00	0.0327
2847.00	0.0323
2848.00	0.0322
2849.00	0.0319
2850.00	0.0316
2851.00	0.0315
2852.00	0.0311
2853.00	0.0309
2854.00	0.0308
2855.00	0.0306
2856.00	0.0305
2857.00	0.0302
2858.00	0.0299
2859.00	0.0297
2860.00	0.0295
2861.00	0.0295
2862.00	0.0293
2863.00	0.0290
2864.00	0.0288
2865.00	0.0284
2866.00	0.0285
2867.00	0.0283
2868.00	0.0282
2869.00	0.0281
2870.00	0.0278
2871.00	0.0279
2872.00	0.0276
2873.00	0.0274
2874.00	0.0274
2875.00	0.0271
2876.00	0.0271
2877.00	0.0269
2878.00	0.0267
2879.00	0.0268
2880.00	0.0267
2881.00	0.0268
2882.00	0.0265
2883.00	0.0263
2884.00	0.0262
2885.00	0.0260
2886.00	0.0261
2887.00	0.0260
2888.00	0.0258
2889.00	0.0257
2890.00	0.0254
2891.00	0.0251
2892.00	0.0250
2893.00	0.0249
2894.00	0.0249
2895.00	0.0248
2896.00	0.0245
2897.00	0.0243
2898.00	0.0243
2899.00	0.0243
2900.00	0.0242
2901.00	0.0242
2902.00	0.0242
2903.00	0.0241
2904.00	0.0240
2905.00	0.0238
2906.00	0.0239
2907.00	0.0240
2908.00	0.0240
2909.00	0.0239
2910.00	0.0238
2911.00	0.0236
2912.00	0.0236
2913.00	0.0234
2914.00	0.0235
2915.00	0.0235
2916.00	0.0235
2917.00	0.0234
2918.00	0.0232
2919.00	0.0229
2920.00	0.0227
2921.00	0.0227
2922.00	0.0226
2923.00	0.0225
2924.00	0.0225
2925.00	0.0223
2926.00	0.0220
2927.00	0.0220
2928.00	0.0220
2929.00	0.0221
2930.00	0.0221
2931.00	0.0221
2932.00	0.0221
2933.00	0.0219
2934.00	0.0219
2935.00	0.0217
2936.00	0.0216
2937.00	0.0216
2938.00	0.0216
2939.00	0.0215
2940.00	0.0213
2941.00	0.0214
2942.00	0.0215
2943.00	0.0215
2944.00	0.0218
2945.00	0.0216
2946.00	0.0217
2947.00	0.0217
2948.00	0.0215
2949.00	0.0215
2950.00	0.0213
2951.00	0.0214
2952.00	0.0214
2953.00	0.0213
2954.00	0.0212
2955.00	0.0210
2956.00	0.0210
2957.00	0.0209
2958.00	0.0208
2959.00	0.0209
2960.00	0.0209
2961.00	0.0210
2962.00	0.0210
2963.00	0.0209
2964.00	0.0209
2965.00	0.0208
2966.00	0.0209
2967.00	0.0210
2968.00	0.0209
2969.00	0.0211
2970.00	0.0211
2971.00	0.0210
2972.00	0.0209
2973.00	0.0209
2974.00	0.0209
2975.00	0.0207
2976.00	0.0207
2977.00	0.0206
2978.00	0.0207
2979.00	0.0209
2980.00	0.0207
2981.00	0.0207
2982.00	0.0208
2983.00	0.0208
2984.00	0.0209
2985.00	0.0208
2986.00	0.0208
2987.00	0.0209
2988.00	0.0209
2989.00	0.0211
2990.00	0.0207
2991.00	0.0207
2992.00	0.0208
2993.00	0.0208
2994.00	0.0208
2995.00	0.0209
2996.00	0.0213
2997.00	0.0216
2998.00	0.0217
2999.00	0.0219
3000.00	0.0219
3001.00	0.0221
3002.00	0.0222
3003.00	0.0222
3004.00	0.0225
3005.00	0.0227
3006.00	0.0228
3007.00	0.0228
3008.00	0.0229
3009.00	0.0228
3010.00	0.0227
3011.00	0.0227
3012.00	0.0227
3013.00	0.0226
3014.00	0.0225
3015.00	0.0226
3016.00	0.0225
3017.00	0.0225
3018.00	0.0224
3019.00	0.0223
3020.00	0.0223
3021.00	0.0224
3022.00	0.0223
3023.00	0.0223
3024.00	0.0223
3025.00	0.0222
3026.00	0.0222
3027.00	0.0223
3028.00	0.0222
3029.00	0.0221
3030.00	0.0222
3031.00	0.0222
3032.00	0.0221
3033.00	0.0221
3034.00	0.0221
3035.00	0.0220
3036.00	0.0220
3037.00	0.0222
3038.00	0.0221
3039.00	0.0222
3040.00	0.0222
3041.00	0.0223
3042.00	0.0222
3043.00	0.0220
3044.00	0.0220
3045.00	0.0221
3046.00	0.0223
3047.00	0.0222
3048.00	0.0221
3049.00	0.0222
3050.00	0.0225
3051.00	0.0225
3052.00	0.0226
3053.00	0.0226
3054.00	0.0227
3055.00	0.0226
3056.00	0.0225
3057.00	0.0225
3058.00	0.0225
3059.00	0.0227
3060.00	0.0229
3061.00	0.0229
3062.00	0.0228
3063.00	0.0228
3064.00	0.0230
3065.00	0.0231
3066.00	0.0230
3067.00	0.0227
3068.00	0.0227
3069.00	0.0225
3070.00	0.0225
3071.00	0.0222
3072.00	0.0223
3073.00	0.0223
3074.00	0.0223
3075.00	0.0220
3076.00	0.0220
3077.00	0.0219
3078.00	0.0219
3079.00	0.0219
3080.00	0.0219
3081.00	0.0218
3082.00	0.0217
3083.00	0.0216
3084.00	0.0217
3085.00	0.0217
3086.00	0.0219
3087.00	0.0217
3088.00	0.0221
3089.00	0.0220
3090.00	0.0219
3091.00	0.0218
3092.00	0.0221
3093.00	0.0221
3094.00	0.0220
3095.00	0.0218
3096.00	0.0216
3097.00	0.0216
3098.00	0.0213
3099.00	0.0213
3100.00	0.0215
3101.00	0.0215
3102.00	0.0213
3103.00	0.0214
3104.00	0.0216
3105.00	0.0212
3106.00	0.0213
3107.00	0.0212
3108.00	0.0211
3109.00	0.0211
3110.00	0.0211
3111.00	0.0211
3112.00	0.0212
3113.00	0.0213
3114.00	0.0214
3115.00	0.0217
3116.00	0.0218
3117.00	0.0217
3118.00	0.0214
3119.00	0.0215
3120.00	0.0214
3121.00	0.0212
3122.00	0.0212
3123.00	0.0211
3124.00	0.0212
3125.00	0.0210
3126.00	0.0211
3127.00	0.0209
3128.00	0.0209
3129.00	0.0210
3130.00	0.0209
3131.00	0.0207
3132.00	0.0205
3133.00	0.0206
3134.00	0.0207
3135.00	0.0206
3136.00	0.0207
3137.00	0.0207
3138.00	0.0208
3139.00	0.0210
3140.00	0.0209
3141.00	0.0209
3142.00	0.0209
3143.00	0.0209
3144.00	0.0212
3145.00	0.0213
3146.00	0.0212
3147.00	0.0210
3148.00	0.0212
3149.00	0.0211
3150.00	0.0209
3151.00	0.0207
3152.00	0.0209
3153.00	0.0210
3154.00	0.0210
3155.00	0.0209
3156.00	0.0204
3157.00	0.0202
3158.00	0.0205
3159.00	0.0206
3160.00	0.0203
3161.00	0.0200
3162.00	0.0201
3163.00	0.0200
3164.00	0.0203
3165.00	0.0203
3166.00	0.0206
3167.00	0.0205
3168.00	0.0206
3169.00	0.0208
3170.00	0.0207
3171.00	0.0209
3172.00	0.0211
3173.00	0.0217
3174.00	0.0221
3175.00	0.0222
3176.00	0.0225
3177.00	0.0228
3178.00	0.0229
3179.00	0.0222
3180.00	0.0223
3181.00	0.0221
3182.00	0.0221
3183.00	0.0224
3184.00	0.0224
3185.00	0.0224
3186.00	0.0224
3187.00	0.0227
3188.00	0.0226
3189.00	0.0225
3190.00	0.0224
3191.00	0.0221
3192.00	0.0216
3193.00	0.0210
3194.00	0.0209
3195.00	0.0208
3196.00	0.0213
3197.00	0.0214
3198.00	0.0219
3199.00	0.0216
3200.00	0.0209
3201.00	0.0213
3202.00	0.0207
3203.00	0.0211
3204.00	0.0203
3205.00	0.0200
3206.00	0.0197
3207.00	0.0194
3208.00	0.0198
3209.00	0.0203
3210.00	0.0210
3211.00	0.0209
3212.00	0.0214
3213.00	0.0220
3214.00	0.0218
3215.00	0.0211
3216.00	0.0214
3217.00	0.0223
3218.00	0.0213
3219.00	0.0222
3220.00	0.0222
3221.00	0.0229
3222.00	0.0231
3223.00	0.0233
3224.00	0.0231
3225.00	0.0229
3226.00	0.0222
3227.00	0.0220
3228.00	0.0225
3229.00	0.0217
3230.00	0.0216
3231.00	0.0224
3232.00	0.0223
3233.00	0.0222
3234.00	0.0217
3235.00	0.0222
3236.00	0.0215
3237.00	0.0215
3238.00	0.0203
3239.00	0.0204
3240.00	0.0200
3241.00	0.0200
3242.00	0.0196
3243.00	0.0205
3244.00	0.0202
3245.00	0.0197
3246.00	0.0202
3247.00	0.0185
3248.00	0.0181
3249.00	0.0188
3250.00	0.0190
3251.00	0.0195
3252.00	0.0198
3253.00	0.0191
3254.00	0.0195
3255.00	0.0203
3256.00	0.0198
3257.00	0.0207
3258.00	0.0209
3259.00	0.0218
3260.00	0.0206
3261.00	0.0196
3262.00	0.0191
3263.00	0.0177
3264.00	0.0191
3265.00	0.0198
3266.00	0.0191
3267.00	0.0188
3268.00	0.0173
3269.00	0.0166
3270.00	0.0181
3271.00	0.0164
3272.00	0.0143
3273.00	0.0134
3274.00	0.0133
3275.00	0.0135
3276.00	0.0128
3277.00	0.0117
3278.00	0.0137
3279.00	0.0142
3280.00	0.0154
3281.00	0.0164
3282.00	0.0175
3283.00	0.0168
3284.00	0.0156
3285.00	0.0171
3286.00	0.0178
3287.00	0.0181
3288.00	0.0169
3289.00	0.0213
3290.00	0.0220
3291.00	0.0210
3292.00	0.0217
3293.00	0.0227
3294.00	0.0252
3295.00	0.0249
3296.00	0.0255
3297.00	0.0264
3298.00	0.0258
3299.00	0.0244
3300.00	0.0262
