"20-30mM-1_Xylene30mM - RawData"
"Wavelength nm."	"Abs."
300.00	0.1387
301.00	0.1404
302.00	0.1421
303.00	0.1441
304.00	0.1457
305.00	0.1474
306.00	0.1489
307.00	0.1511
308.00	0.1535
309.00	0.1558
310.00	0.1577
311.00	0.1593
312.00	0.1612
313.00	0.1630
314.00	0.1647
315.00	0.1671
316.00	0.1697
317.00	0.1719
318.00	0.1742
319.00	0.1768
320.00	0.1786
321.00	0.1807
322.00	0.1827
323.00	0.1847
324.00	0.1863
325.00	0.1885
326.00	0.1906
327.00	0.1925
328.00	0.1942
329.00	0.1956
330.00	0.1967
331.00	0.1973
332.00	0.1980
333.00	0.1994
334.00	0.2010
335.00	0.2031
336.00	0.2056
337.00	0.2082
338.00	0.2102
339.00	0.2119
340.00	0.2136
341.00	0.2150
342.00	0.2163
343.00	0.2178
344.00	0.2192
345.00	0.2209
346.00	0.2222
347.00	0.2234
348.00	0.2244
349.00	0.2252
350.00	0.2259
351.00	0.2270
352.00	0.2281
353.00	0.2292
354.00	0.2302
355.00	0.2310
356.00	0.2318
357.00	0.2326
358.00	0.2333
359.00	0.2339
360.00	0.2343
361.00	0.2344
362.00	0.2341
363.00	0.2346
364.00	0.2353
365.00	0.2364
366.00	0.2377
367.00	0.2396
368.00	0.2403
369.00	0.2413
370.00	0.2424
371.00	0.2440
372.00	0.2444
373.00	0.2449
374.00	0.2453
375.00	0.2454
376.00	0.2450
377.00	0.2458
378.00	0.2468
379.00	0.2475
380.00	0.2486
381.00	0.2496
382.00	0.2505
383.00	0.2516
384.00	0.2527
385.00	0.2537
386.00	0.2549
387.00	0.2561
388.00	0.2570
389.00	0.2578
390.00	0.2588
391.00	0.2596
392.00	0.2606
393.00	0.2614
394.00	0.2621
395.00	0.2628
396.00	0.2634
397.00	0.2638
398.00	0.2643
399.00	0.2647
400.00	0.2653
401.00	0.2660
402.00	0.2669
403.00	0.2677
404.00	0.2686
405.00	0.2695
406.00	0.2703
407.00	0.2711
408.00	0.2719
409.00	0.2728
410.00	0.2735
411.00	0.2742
412.00	0.2748
413.00	0.2753
414.00	0.2759
415.00	0.2764
416.00	0.2768
417.00	0.2771
418.00	0.2773
419.00	0.2769
420.00	0.2765
421.00	0.2760
422.00	0.2753
423.00	0.2744
424.00	0.2737
425.00	0.2729
426.00	0.2721
427.00	0.2714
428.00	0.2706
429.00	0.2699
430.00	0.2691
431.00	0.2683
432.00	0.2675
433.00	0.2669
434.00	0.2663
435.00	0.2657
436.00	0.2648
437.00	0.2637
438.00	0.2622
439.00	0.2606
440.00	0.2587
441.00	0.2566
442.00	0.2546
443.00	0.2526
444.00	0.2506
445.00	0.2487
446.00	0.2469
447.00	0.2452
448.00	0.2436
449.00	0.2419
450.00	0.2404
451.00	0.2391
452.00	0.2378
453.00	0.2367
454.00	0.2357
455.00	0.2349
456.00	0.2341
457.00	0.2334
458.00	0.2329
459.00	0.2325
460.00	0.2323
461.00	0.2321
462.00	0.2322
463.00	0.2319
464.00	0.2317
465.00	0.2314
466.00	0.2312
467.00	0.2309
468.00	0.2309
469.00	0.2307
470.00	0.2306
471.00	0.2305
472.00	0.2303
473.00	0.2302
474.00	0.2303
475.00	0.2303
476.00	0.2303
477.00	0.2304
478.00	0.2304
479.00	0.2304
480.00	0.2304
481.00	0.2304
482.00	0.2305
483.00	0.2307
484.00	0.2307
485.00	0.2308
486.00	0.2308
487.00	0.2305
488.00	0.2302
489.00	0.2299
490.00	0.2298
491.00	0.2296
492.00	0.2295
493.00	0.2296
494.00	0.2296
495.00	0.2297
496.00	0.2298
497.00	0.2297
498.00	0.2296
499.00	0.2296
500.00	0.2293
501.00	0.2291
502.00	0.2289
503.00	0.2288
504.00	0.2287
505.00	0.2288
506.00	0.2287
507.00	0.2286
508.00	0.2286
509.00	0.2284
510.00	0.2279
511.00	0.2275
512.00	0.2270
513.00	0.2266
514.00	0.2261
515.00	0.2257
516.00	0.2254
517.00	0.2250
518.00	0.2244
519.00	0.2238
520.00	0.2234
521.00	0.2229
522.00	0.2224
523.00	0.2219
524.00	0.2211
525.00	0.2203
526.00	0.2195
527.00	0.2187
528.00	0.2181
529.00	0.2178
530.00	0.2181
531.00	0.2173
532.00	0.2167
533.00	0.2159
534.00	0.2148
535.00	0.2133
536.00	0.2129
537.00	0.2129
538.00	0.2127
539.00	0.2124
540.00	0.2118
541.00	0.2109
542.00	0.2096
543.00	0.2085
544.00	0.2078
545.00	0.2071
546.00	0.2064
547.00	0.2058
548.00	0.2052
549.00	0.2045
550.00	0.2040
551.00	0.2035
552.00	0.2029
553.00	0.2024
554.00	0.2017
555.00	0.2010
556.00	0.2003
557.00	0.1995
558.00	0.1986
559.00	0.1978
560.00	0.1970
561.00	0.1962
562.00	0.1957
563.00	0.1953
564.00	0.1948
565.00	0.1941
566.00	0.1934
567.00	0.1925
568.00	0.1916
569.00	0.1908
570.00	0.1904
571.00	0.1897
572.00	0.1892
573.00	0.1884
574.00	0.1876
575.00	0.1867
576.00	0.1858
577.00	0.1849
578.00	0.1842
579.00	0.1835
580.00	0.1827
581.00	0.1820
582.00	0.1812
583.00	0.1804
584.00	0.1795
585.00	0.1786
586.00	0.1777
587.00	0.1768
588.00	0.1758
589.00	0.1749
590.00	0.1738
591.00	0.1730
592.00	0.1720
593.00	0.1711
594.00	0.1701
595.00	0.1693
596.00	0.1683
597.00	0.1672
598.00	0.1662
599.00	0.1654
600.00	0.1644
601.00	0.1636
602.00	0.1629
603.00	0.1621
604.00	0.1611
605.00	0.1602
606.00	0.1592
607.00	0.1582
608.00	0.1574
609.00	0.1567
610.00	0.1560
611.00	0.1553
612.00	0.1545
613.00	0.1536
614.00	0.1526
615.00	0.1519
616.00	0.1513
617.00	0.1509
618.00	0.1502
619.00	0.1496
620.00	0.1488
621.00	0.1480
622.00	0.1472
623.00	0.1466
624.00	0.1463
625.00	0.1461
626.00	0.1457
627.00	0.1452
628.00	0.1448
629.00	0.1444
630.00	0.1440
631.00	0.1436
632.00	0.1431
633.00	0.1425
634.00	0.1418
635.00	0.1412
636.00	0.1407
637.00	0.1404
638.00	0.1403
639.00	0.1402
640.00	0.1399
641.00	0.1397
642.00	0.1395
643.00	0.1394
644.00	0.1392
645.00	0.1390
646.00	0.1388
647.00	0.1386
648.00	0.1383
649.00	0.1383
650.00	0.1384
651.00	0.1384
652.00	0.1384
653.00	0.1383
654.00	0.1381
655.00	0.1377
656.00	0.1373
657.00	0.1372
658.00	0.1372
659.00	0.1374
660.00	0.1375
661.00	0.1377
662.00	0.1378
663.00	0.1380
664.00	0.1378
665.00	0.1377
666.00	0.1379
667.00	0.1381
668.00	0.1383
669.00	0.1383
670.00	0.1393
671.00	0.1394
672.00	0.1394
673.00	0.1396
674.00	0.1395
675.00	0.1390
676.00	0.1394
677.00	0.1395
678.00	0.1393
679.00	0.1396
680.00	0.1397
681.00	0.1396
682.00	0.1396
683.00	0.1402
684.00	0.1405
685.00	0.1406
686.00	0.1408
687.00	0.1409
688.00	0.1407
689.00	0.1407
690.00	0.1404
691.00	0.1407
692.00	0.1409
693.00	0.1409
694.00	0.1409
695.00	0.1414
696.00	0.1412
697.00	0.1411
698.00	0.1410
699.00	0.1410
700.00	0.1410
701.00	0.1411
702.00	0.1412
703.00	0.1415
704.00	0.1416
705.00	0.1414
706.00	0.1415
707.00	0.1415
708.00	0.1417
709.00	0.1418
710.00	0.1420
711.00	0.1422
712.00	0.1423
713.00	0.1421
714.00	0.1421
715.00	0.1423
716.00	0.1424
717.00	0.1423
718.00	0.1422
719.00	0.1423
720.00	0.1424
721.00	0.1423
722.00	0.1426
723.00	0.1427
724.00	0.1420
725.00	0.1422
726.00	0.1415
727.00	0.1415
728.00	0.1416
729.00	0.1424
730.00	0.1423
731.00	0.1431
732.00	0.1432
733.00	0.1436
734.00	0.1438
735.00	0.1439
736.00	0.1439
737.00	0.1440
738.00	0.1443
739.00	0.1446
740.00	0.1450
741.00	0.1454
742.00	0.1457
743.00	0.1458
744.00	0.1458
745.00	0.1459
746.00	0.1461
747.00	0.1463
748.00	0.1471
749.00	0.1474
750.00	0.1477
751.00	0.1480
752.00	0.1486
753.00	0.1482
754.00	0.1485
755.00	0.1488
756.00	0.1490
757.00	0.1490
758.00	0.1493
759.00	0.1494
760.00	0.1495
761.00	0.1495
762.00	0.1498
763.00	0.1500
764.00	0.1503
765.00	0.1505
766.00	0.1507
767.00	0.1508
768.00	0.1507
769.00	0.1507
770.00	0.1505
771.00	0.1502
772.00	0.1501
773.00	0.1496
774.00	0.1502
775.00	0.1499
776.00	0.1496
777.00	0.1494
778.00	0.1492
779.00	0.1481
780.00	0.1477
781.00	0.1473
782.00	0.1469
783.00	0.1465
784.00	0.1462
785.00	0.1465
786.00	0.1464
787.00	0.1459
788.00	0.1455
789.00	0.1453
790.00	0.1445
791.00	0.1441
792.00	0.1436
793.00	0.1432
794.00	0.1427
795.00	0.1421
796.00	0.1415
797.00	0.1407
798.00	0.1400
799.00	0.1394
800.00	0.1389
801.00	0.1385
802.00	0.1385
803.00	0.1381
804.00	0.1375
805.00	0.1369
806.00	0.1364
807.00	0.1358
808.00	0.1356
809.00	0.1351
810.00	0.1347
811.00	0.1344
812.00	0.1340
813.00	0.1332
814.00	0.1329
815.00	0.1327
816.00	0.1324
817.00	0.1323
818.00	0.1322
819.00	0.1323
820.00	0.1320
821.00	0.1318
822.00	0.1317
823.00	0.1315
824.00	0.1311
825.00	0.1311
826.00	0.1309
827.00	0.1310
828.00	0.1312
829.00	0.1314
830.00	0.1316
831.00	0.1320
832.00	0.1319
833.00	0.1320
834.00	0.1320
835.00	0.1320
836.00	0.1320
837.00	0.1322
838.00	0.1323
839.00	0.1326
840.00	0.1328
841.00	0.1332
842.00	0.1334
843.00	0.1335
844.00	0.1339
845.00	0.1341
846.00	0.1345
847.00	0.1350
848.00	0.1354
849.00	0.1357
850.00	0.1360
851.00	0.1363
852.00	0.1364
853.00	0.1366
854.00	0.1367
855.00	0.1369
856.00	0.1367
857.00	0.1367
858.00	0.1365
859.00	0.1363
860.00	0.1362
861.00	0.1362
862.00	0.1362
863.00	0.1362
864.00	0.1362
865.00	0.1360
866.00	0.1358
867.00	0.1356
868.00	0.1354
869.00	0.1352
870.00	0.1351
871.00	0.1348
872.00	0.1348
873.00	0.1346
874.00	0.1344
875.00	0.1342
876.00	0.1341
877.00	0.1338
878.00	0.1332
879.00	0.1327
880.00	0.1321
881.00	0.1315
882.00	0.1310
883.00	0.1305
884.00	0.1298
885.00	0.1292
886.00	0.1284
887.00	0.1276
888.00	0.1269
889.00	0.1261
890.00	0.1254
891.00	0.1247
892.00	0.1239
893.00	0.1233
894.00	0.1226
895.00	0.1218
896.00	0.1210
897.00	0.1202
898.00	0.1195
899.00	0.1188
900.00	0.1181
901.00	0.1172
902.00	0.1165
903.00	0.1158
904.00	0.1151
905.00	0.1144
906.00	0.1140
907.00	0.1136
908.00	0.1130
909.00	0.1124
910.00	0.1117
911.00	0.1110
912.00	0.1102
913.00	0.1095
914.00	0.1087
915.00	0.1082
916.00	0.1076
917.00	0.1071
918.00	0.1067
919.00	0.1063
920.00	0.1058
921.00	0.1053
922.00	0.1046
923.00	0.1038
924.00	0.1030
925.00	0.1024
926.00	0.1018
927.00	0.1012
928.00	0.1006
929.00	0.1003
930.00	0.0997
931.00	0.0990
932.00	0.0985
933.00	0.0980
934.00	0.0975
935.00	0.0971
936.00	0.0967
937.00	0.0963
938.00	0.0958
939.00	0.0952
940.00	0.0946
941.00	0.0941
942.00	0.0937
943.00	0.0932
944.00	0.0928
945.00	0.0922
946.00	0.0915
947.00	0.0911
948.00	0.0905
949.00	0.0900
950.00	0.0896
951.00	0.0893
952.00	0.0887
953.00	0.0882
954.00	0.0877
955.00	0.0872
956.00	0.0865
957.00	0.0862
958.00	0.0858
959.00	0.0851
960.00	0.0847
961.00	0.0843
962.00	0.0837
963.00	0.0832
964.00	0.0830
965.00	0.0825
966.00	0.0821
967.00	0.0817
968.00	0.0810
969.00	0.0806
970.00	0.0803
971.00	0.0798
972.00	0.0793
973.00	0.0790
974.00	0.0785
975.00	0.0780
976.00	0.0776
977.00	0.0772
978.00	0.0768
979.00	0.0765
980.00	0.0760
981.00	0.0754
982.00	0.0750
983.00	0.0747
984.00	0.0743
985.00	0.0739
986.00	0.0738
987.00	0.0732
988.00	0.0730
989.00	0.0725
990.00	0.0721
991.00	0.0718
992.00	0.0714
993.00	0.0709
994.00	0.0705
995.00	0.0701
996.00	0.0697
997.00	0.0693
998.00	0.0689
999.00	0.0687
1000.00	0.0681
1001.00	0.0676
1002.00	0.0673
1003.00	0.0667
1004.00	0.0662
1005.00	0.0658
1006.00	0.0656
1007.00	0.0652
1008.00	0.0651
1009.00	0.0647
1010.00	0.0644
1011.00	0.0639
1012.00	0.0633
1013.00	0.0631
1014.00	0.0625
1015.00	0.0621
1016.00	0.0617
1017.00	0.0614
1018.00	0.0610
1019.00	0.0608
1020.00	0.0606
1021.00	0.0605
1022.00	0.0602
1023.00	0.0599
1024.00	0.0596
1025.00	0.0590
1026.00	0.0587
1027.00	0.0582
1028.00	0.0578
1029.00	0.0574
1030.00	0.0574
1031.00	0.0572
1032.00	0.0572
1033.00	0.0568
1034.00	0.0567
1035.00	0.0563
1036.00	0.0557
1037.00	0.0553
1038.00	0.0550
1039.00	0.0547
1040.00	0.0542
1041.00	0.0536
1042.00	0.0536
1043.00	0.0534
1044.00	0.0531
1045.00	0.0532
1046.00	0.0533
1047.00	0.0529
1048.00	0.0524
1049.00	0.0521
1050.00	0.0515
1051.00	0.0511
1052.00	0.0509
1053.00	0.0507
1054.00	0.0505
1055.00	0.0506
1056.00	0.0504
1057.00	0.0503
1058.00	0.0505
1059.00	0.0502
1060.00	0.0498
1061.00	0.0496
1062.00	0.0492
1063.00	0.0486
1064.00	0.0485
1065.00	0.0485
1066.00	0.0481
1067.00	0.0482
1068.00	0.0481
1069.00	0.0478
1070.00	0.0476
1071.00	0.0475
1072.00	0.0469
1073.00	0.0464
1074.00	0.0463
1075.00	0.0459
1076.00	0.0459
1077.00	0.0458
1078.00	0.0457
1079.00	0.0455
1080.00	0.0453
1081.00	0.0452
1082.00	0.0449
1083.00	0.0447
1084.00	0.0445
1085.00	0.0445
1086.00	0.0442
1087.00	0.0442
1088.00	0.0440
1089.00	0.0440
1090.00	0.0438
1091.00	0.0438
1092.00	0.0438
1093.00	0.0436
1094.00	0.0434
1095.00	0.0432
1096.00	0.0430
1097.00	0.0429
1098.00	0.0428
1099.00	0.0429
1100.00	0.0430
1101.00	0.0428
1102.00	0.0426
1103.00	0.0426
1104.00	0.0421
1105.00	0.0420
1106.00	0.0418
1107.00	0.0417
1108.00	0.0415
1109.00	0.0415
1110.00	0.0413
1111.00	0.0413
1112.00	0.0412
1113.00	0.0411
1114.00	0.0410
1115.00	0.0406
1116.00	0.0401
1117.00	0.0400
1118.00	0.0399
1119.00	0.0397
1120.00	0.0399
1121.00	0.0402
1122.00	0.0403
1123.00	0.0401
1124.00	0.0401
1125.00	0.0401
1126.00	0.0400
1127.00	0.0399
1128.00	0.0398
1129.00	0.0397
1130.00	0.0396
1131.00	0.0397
1132.00	0.0396
1133.00	0.0395
1134.00	0.0395
1135.00	0.0396
1136.00	0.0394
1137.00	0.0394
1138.00	0.0396
1139.00	0.0395
1140.00	0.0394
1141.00	0.0393
1142.00	0.0392
1143.00	0.0390
1144.00	0.0391
1145.00	0.0389
1146.00	0.0390
1147.00	0.0390
1148.00	0.0390
1149.00	0.0389
1150.00	0.0389
1151.00	0.0389
1152.00	0.0389
1153.00	0.0388
1154.00	0.0386
1155.00	0.0387
1156.00	0.0386
1157.00	0.0387
1158.00	0.0388
1159.00	0.0390
1160.00	0.0389
1161.00	0.0391
1162.00	0.0394
1163.00	0.0386
1164.00	0.0383
1165.00	0.0383
1166.00	0.0381
1167.00	0.0375
1168.00	0.0381
1169.00	0.0383
1170.00	0.0385
1171.00	0.0386
1172.00	0.0385
1173.00	0.0387
1174.00	0.0386
1175.00	0.0386
1176.00	0.0384
1177.00	0.0386
1178.00	0.0384
1179.00	0.0384
1180.00	0.0383
1181.00	0.0384
1182.00	0.0384
1183.00	0.0385
1184.00	0.0385
1185.00	0.0384
1186.00	0.0385
1187.00	0.0385
1188.00	0.0386
1189.00	0.0386
1190.00	0.0387
1191.00	0.0385
1192.00	0.0384
1193.00	0.0383
1194.00	0.0387
1195.00	0.0389
1196.00	0.0390
1197.00	0.0391
1198.00	0.0390
1199.00	0.0388
1200.00	0.0387
1201.00	0.0386
1202.00	0.0384
1203.00	0.0389
1204.00	0.0390
1205.00	0.0391
1206.00	0.0390
1207.00	0.0392
1208.00	0.0385
1209.00	0.0381
1210.00	0.0382
1211.00	0.0383
1212.00	0.0382
1213.00	0.0386
1214.00	0.0387
1215.00	0.0386
1216.00	0.0386
1217.00	0.0387
1218.00	0.0387
1219.00	0.0388
1220.00	0.0387
1221.00	0.0387
1222.00	0.0387
1223.00	0.0388
1224.00	0.0388
1225.00	0.0389
1226.00	0.0388
1227.00	0.0388
1228.00	0.0387
1229.00	0.0387
1230.00	0.0388
1231.00	0.0389
1232.00	0.0390
1233.00	0.0391
1234.00	0.0390
1235.00	0.0391
1236.00	0.0390
1237.00	0.0386
1238.00	0.0386
1239.00	0.0387
1240.00	0.0386
1241.00	0.0386
1242.00	0.0387
1243.00	0.0389
1244.00	0.0390
1245.00	0.0391
1246.00	0.0392
1247.00	0.0393
1248.00	0.0393
1249.00	0.0390
1250.00	0.0390
1251.00	0.0391
1252.00	0.0392
1253.00	0.0393
1254.00	0.0397
1255.00	0.0392
1256.00	0.0388
1257.00	0.0390
1258.00	0.0389
1259.00	0.0386
1260.00	0.0391
1261.00	0.0393
1262.00	0.0394
1263.00	0.0395
1264.00	0.0396
1265.00	0.0398
1266.00	0.0400
1267.00	0.0398
1268.00	0.0398
1269.00	0.0398
1270.00	0.0399
1271.00	0.0398
1272.00	0.0397
1273.00	0.0397
1274.00	0.0400
1275.00	0.0399
1276.00	0.0401
1277.00	0.0403
1278.00	0.0405
1279.00	0.0406
1280.00	0.0407
1281.00	0.0408
1282.00	0.0408
1283.00	0.0408
1284.00	0.0408
1285.00	0.0407
1286.00	0.0404
1287.00	0.0406
1288.00	0.0403
1289.00	0.0402
1290.00	0.0404
1291.00	0.0405
1292.00	0.0405
1293.00	0.0407
1294.00	0.0407
1295.00	0.0406
1296.00	0.0407
1297.00	0.0406
1298.00	0.0408
1299.00	0.0409
1300.00	0.0412
1301.00	0.0414
1302.00	0.0420
1303.00	0.0421
1304.00	0.0421
1305.00	0.0420
1306.00	0.0419
1307.00	0.0414
1308.00	0.0412
1309.00	0.0413
1310.00	0.0414
1311.00	0.0414
1312.00	0.0416
1313.00	0.0417
1314.00	0.0417
1315.00	0.0418
1316.00	0.0421
1317.00	0.0420
1318.00	0.0420
1319.00	0.0419
1320.00	0.0418
1321.00	0.0417
1322.00	0.0417
1323.00	0.0419
1324.00	0.0421
1325.00	0.0421
1326.00	0.0422
1327.00	0.0423
1328.00	0.0423
1329.00	0.0424
1330.00	0.0425
1331.00	0.0421
1332.00	0.0421
1333.00	0.0421
1334.00	0.0421
1335.00	0.0420
1336.00	0.0425
1337.00	0.0426
1338.00	0.0425
1339.00	0.0425
1340.00	0.0428
1341.00	0.0429
1342.00	0.0429
1343.00	0.0432
1344.00	0.0430
1345.00	0.0433
1346.00	0.0431
1347.00	0.0431
1348.00	0.0431
1349.00	0.0433
1350.00	0.0429
1351.00	0.0430
1352.00	0.0432
1353.00	0.0432
1354.00	0.0435
1355.00	0.0436
1356.00	0.0436
1357.00	0.0438
1358.00	0.0441
1359.00	0.0440
1360.00	0.0443
1361.00	0.0446
1362.00	0.0446
1363.00	0.0448
1364.00	0.0449
1365.00	0.0453
1366.00	0.0454
1367.00	0.0454
1368.00	0.0453
1369.00	0.0455
1370.00	0.0453
1371.00	0.0454
1372.00	0.0454
1373.00	0.0454
1374.00	0.0455
1375.00	0.0457
1376.00	0.0459
1377.00	0.0453
1378.00	0.0457
1379.00	0.0457
1380.00	0.0456
1381.00	0.0454
1382.00	0.0460
1383.00	0.0459
1384.00	0.0461
1385.00	0.0462
1386.00	0.0462
1387.00	0.0466
1388.00	0.0468
1389.00	0.0470
1390.00	0.0472
1391.00	0.0474
1392.00	0.0476
1393.00	0.0477
1394.00	0.0475
1395.00	0.0475
1396.00	0.0477
1397.00	0.0476
1398.00	0.0478
1399.00	0.0479
1400.00	0.0485
1401.00	0.0486
1402.00	0.0488
1403.00	0.0488
1404.00	0.0489
1405.00	0.0487
1406.00	0.0488
1407.00	0.0488
1408.00	0.0483
1409.00	0.0487
1410.00	0.0488
1411.00	0.0489
1412.00	0.0490
1413.00	0.0498
1414.00	0.0498
1415.00	0.0500
1416.00	0.0499
1417.00	0.0498
1418.00	0.0496
1419.00	0.0498
1420.00	0.0498
1421.00	0.0500
1422.00	0.0505
1423.00	0.0507
1424.00	0.0507
1425.00	0.0511
1426.00	0.0513
1427.00	0.0515
1428.00	0.0516
1429.00	0.0514
1430.00	0.0515
1431.00	0.0515
1432.00	0.0515
1433.00	0.0519
1434.00	0.0522
1435.00	0.0523
1436.00	0.0525
1437.00	0.0527
1438.00	0.0527
1439.00	0.0528
1440.00	0.0529
1441.00	0.0528
1442.00	0.0528
1443.00	0.0528
1444.00	0.0529
1445.00	0.0530
1446.00	0.0532
1447.00	0.0532
1448.00	0.0535
1449.00	0.0536
1450.00	0.0538
1451.00	0.0539
1452.00	0.0540
1453.00	0.0539
1454.00	0.0535
1455.00	0.0535
1456.00	0.0537
1457.00	0.0540
1458.00	0.0544
1459.00	0.0548
1460.00	0.0548
1461.00	0.0548
1462.00	0.0550
1463.00	0.0549
1464.00	0.0550
1465.00	0.0550
1466.00	0.0551
1467.00	0.0550
1468.00	0.0550
1469.00	0.0551
1470.00	0.0555
1471.00	0.0560
1472.00	0.0562
1473.00	0.0564
1474.00	0.0569
1475.00	0.0569
1476.00	0.0565
1477.00	0.0566
1478.00	0.0565
1479.00	0.0565
1480.00	0.0565
1481.00	0.0568
1482.00	0.0570
1483.00	0.0576
1484.00	0.0575
1485.00	0.0582
1486.00	0.0582
1487.00	0.0580
1488.00	0.0581
1489.00	0.0583
1490.00	0.0578
1491.00	0.0582
1492.00	0.0583
1493.00	0.0583
1494.00	0.0586
1495.00	0.0588
1496.00	0.0591
1497.00	0.0593
1498.00	0.0589
1499.00	0.0585
1500.00	0.0586
1501.00	0.0587
1502.00	0.0588
1503.00	0.0593
1504.00	0.0597
1505.00	0.0600
1506.00	0.0603
1507.00	0.0605
1508.00	0.0609
1509.00	0.0613
1510.00	0.0612
1511.00	0.0613
1512.00	0.0613
1513.00	0.0613
1514.00	0.0617
1515.00	0.0617
1516.00	0.0611
1517.00	0.0613
1518.00	0.0614
1519.00	0.0614
1520.00	0.0616
1521.00	0.0624
1522.00	0.0626
1523.00	0.0628
1524.00	0.0628
1525.00	0.0629
1526.00	0.0632
1527.00	0.0633
1528.00	0.0634
1529.00	0.0636
1530.00	0.0636
1531.00	0.0636
1532.00	0.0640
1533.00	0.0638
1534.00	0.0639
1535.00	0.0643
1536.00	0.0644
1537.00	0.0644
1538.00	0.0646
1539.00	0.0648
1540.00	0.0649
1541.00	0.0650
1542.00	0.0650
1543.00	0.0653
1544.00	0.0656
1545.00	0.0658
1546.00	0.0659
1547.00	0.0660
1548.00	0.0660
1549.00	0.0661
1550.00	0.0663
1551.00	0.0664
1552.00	0.0667
1553.00	0.0669
1554.00	0.0671
1555.00	0.0670
1556.00	0.0672
1557.00	0.0673
1558.00	0.0673
1559.00	0.0674
1560.00	0.0676
1561.00	0.0678
1562.00	0.0681
1563.00	0.0685
1564.00	0.0685
1565.00	0.0688
1566.00	0.0690
1567.00	0.0690
1568.00	0.0689
1569.00	0.0692
1570.00	0.0693
1571.00	0.0694
1572.00	0.0696
1573.00	0.0697
1574.00	0.0693
1575.00	0.0695
1576.00	0.0697
1577.00	0.0694
1578.00	0.0698
1579.00	0.0705
1580.00	0.0704
1581.00	0.0703
1582.00	0.0709
1583.00	0.0711
1584.00	0.0712
1585.00	0.0715
1586.00	0.0718
1587.00	0.0721
1588.00	0.0723
1589.00	0.0725
1590.00	0.0728
1591.00	0.0730
1592.00	0.0731
1593.00	0.0730
1594.00	0.0731
1595.00	0.0731
1596.00	0.0734
1597.00	0.0735
1598.00	0.0738
1599.00	0.0741
1600.00	0.0744
1601.00	0.0746
1602.00	0.0748
1603.00	0.0749
1604.00	0.0748
1605.00	0.0750
1606.00	0.0750
1607.00	0.0750
1608.00	0.0753
1609.00	0.0757
1610.00	0.0758
1611.00	0.0760
1612.00	0.0761
1613.00	0.0762
1614.00	0.0763
1615.00	0.0765
1616.00	0.0765
1617.00	0.0768
1618.00	0.0769
1619.00	0.0769
1620.00	0.0769
1621.00	0.0772
1622.00	0.0776
1623.00	0.0771
1624.00	0.0776
1625.00	0.0782
1626.00	0.0783
1627.00	0.0786
1628.00	0.0792
1629.00	0.0791
1630.00	0.0789
1631.00	0.0792
1632.00	0.0789
1633.00	0.0792
1634.00	0.0792
1635.00	0.0793
1636.00	0.0792
1637.00	0.0795
1638.00	0.0793
1639.00	0.0782
1640.00	0.0785
1641.00	0.0785
1642.00	0.0784
1643.00	0.0786
1644.00	0.0796
1645.00	0.0792
1646.00	0.0789
1647.00	0.0788
1648.00	0.0785
1649.00	0.0783
1650.00	0.0781
1651.00	0.0780
1652.00	0.0777
1653.00	0.0772
1654.00	0.0771
1655.00	0.0768
1656.00	0.0765
1657.00	0.0765
1658.00	0.0766
1659.00	0.0767
1660.00	0.0769
1661.00	0.0771
1662.00	0.0772
1663.00	0.0772
1664.00	0.0771
1665.00	0.0771
1666.00	0.0771
1667.00	0.0772
1668.00	0.0773
1669.00	0.0773
1670.00	0.0775
1671.00	0.0775
1672.00	0.0777
1673.00	0.0779
1674.00	0.0779
1675.00	0.0781
1676.00	0.0784
1677.00	0.0783
1678.00	0.0781
1679.00	0.0783
1680.00	0.0784
1681.00	0.0784
1682.00	0.0788
1683.00	0.0792
1684.00	0.0793
1685.00	0.0799
1686.00	0.0800
1687.00	0.0802
1688.00	0.0803
1689.00	0.0807
1690.00	0.0804
1691.00	0.0803
1692.00	0.0803
1693.00	0.0804
1694.00	0.0803
1695.00	0.0804
1696.00	0.0808
1697.00	0.0810
1698.00	0.0812
1699.00	0.0816
1700.00	0.0816
1701.00	0.0817
1702.00	0.0818
1703.00	0.0817
1704.00	0.0813
1705.00	0.0814
1706.00	0.0815
1707.00	0.0815
1708.00	0.0817
1709.00	0.0821
1710.00	0.0824
1711.00	0.0827
1712.00	0.0829
1713.00	0.0832
1714.00	0.0834
1715.00	0.0835
1716.00	0.0838
1717.00	0.0838
1718.00	0.0836
1719.00	0.0838
1720.00	0.0839
1721.00	0.0837
1722.00	0.0840
1723.00	0.0843
1724.00	0.0843
1725.00	0.0844
1726.00	0.0849
1727.00	0.0849
1728.00	0.0853
1729.00	0.0857
1730.00	0.0859
1731.00	0.0860
1732.00	0.0860
1733.00	0.0861
1734.00	0.0859
1735.00	0.0859
1736.00	0.0860
1737.00	0.0860
1738.00	0.0859
1739.00	0.0861
1740.00	0.0863
1741.00	0.0866
1742.00	0.0869
1743.00	0.0872
1744.00	0.0874
1745.00	0.0875
1746.00	0.0875
1747.00	0.0873
1748.00	0.0874
1749.00	0.0873
1750.00	0.0875
1751.00	0.0875
1752.00	0.0880
1753.00	0.0880
1754.00	0.0883
1755.00	0.0886
1756.00	0.0887
1757.00	0.0889
1758.00	0.0891
1759.00	0.0889
1760.00	0.0889
1761.00	0.0891
1762.00	0.0891
1763.00	0.0893
1764.00	0.0897
1765.00	0.0899
1766.00	0.0900
1767.00	0.0903
1768.00	0.0905
1769.00	0.0907
1770.00	0.0907
1771.00	0.0909
1772.00	0.0910
1773.00	0.0907
1774.00	0.0909
1775.00	0.0912
1776.00	0.0913
1777.00	0.0913
1778.00	0.0914
1779.00	0.0913
1780.00	0.0914
1781.00	0.0914
1782.00	0.0917
1783.00	0.0922
1784.00	0.0924
1785.00	0.0925
1786.00	0.0926
1787.00	0.0928
1788.00	0.0925
1789.00	0.0924
1790.00	0.0926
1791.00	0.0927
1792.00	0.0926
1793.00	0.0928
1794.00	0.0933
1795.00	0.0935
1796.00	0.0938
1797.00	0.0939
1798.00	0.0942
1799.00	0.0941
1800.00	0.0941
1801.00	0.0943
1802.00	0.0946
1803.00	0.0948
1804.00	0.0950
1805.00	0.0951
1806.00	0.0952
1807.00	0.0952
1808.00	0.0954
1809.00	0.0953
1810.00	0.0955
1811.00	0.0954
1812.00	0.0956
1813.00	0.0955
1814.00	0.0955
1815.00	0.0956
1816.00	0.0956
1817.00	0.0957
1818.00	0.0958
1819.00	0.0958
1820.00	0.0958
1821.00	0.0960
1822.00	0.0963
1823.00	0.0967
1824.00	0.0970
1825.00	0.0972
1826.00	0.0974
1827.00	0.0975
1828.00	0.0973
1829.00	0.0975
1830.00	0.0975
1831.00	0.0975
1832.00	0.0977
1833.00	0.0979
1834.00	0.0981
1835.00	0.0981
1836.00	0.0985
1837.00	0.0985
1838.00	0.0986
1839.00	0.0986
1840.00	0.0988
1841.00	0.0986
1842.00	0.0987
1843.00	0.0987
1844.00	0.0986
1845.00	0.0985
1846.00	0.0984
1847.00	0.0982
1848.00	0.0982
1849.00	0.0980
1850.00	0.0981
1851.00	0.0983
1852.00	0.0986
1853.00	0.0989
1854.00	0.0993
1855.00	0.0993
1856.00	0.0994
1857.00	0.0997
1858.00	0.0999
1859.00	0.1001
1860.00	0.1003
1861.00	0.1004
1862.00	0.1002
1863.00	0.1001
1864.00	0.1001
1865.00	0.1000
1866.00	0.0999
1867.00	0.1002
1868.00	0.1007
1869.00	0.1009
1870.00	0.1012
1871.00	0.1016
1872.00	0.1018
1873.00	0.1017
1874.00	0.1018
1875.00	0.1019
1876.00	0.1018
1877.00	0.1019
1878.00	0.1016
1879.00	0.1015
1880.00	0.1015
1881.00	0.1016
1882.00	0.1014
1883.00	0.1016
1884.00	0.1015
1885.00	0.1013
1886.00	0.1012
1887.00	0.1014
1888.00	0.1014
1889.00	0.1016
1890.00	0.1019
1891.00	0.1020
1892.00	0.1016
1893.00	0.1019
1894.00	0.1020
1895.00	0.1016
1896.00	0.1017
1897.00	0.1022
1898.00	0.1024
1899.00	0.1027
1900.00	0.1033
1901.00	0.1040
1902.00	0.1045
1903.00	0.1047
1904.00	0.1050
1905.00	0.1051
1906.00	0.1050
1907.00	0.1046
1908.00	0.1046
1909.00	0.1046
1910.00	0.1045
1911.00	0.1046
1912.00	0.1047
1913.00	0.1045
1914.00	0.1044
1915.00	0.1044
1916.00	0.1043
1917.00	0.1044
1918.00	0.1043
1919.00	0.1045
1920.00	0.1046
1921.00	0.1044
1922.00	0.1045
1923.00	0.1048
1924.00	0.1049
1925.00	0.1049
1926.00	0.1054
1927.00	0.1055
1928.00	0.1054
1929.00	0.1049
1930.00	0.1049
1931.00	0.1048
1932.00	0.1047
1933.00	0.1050
1934.00	0.1052
1935.00	0.1055
1936.00	0.1054
1937.00	0.1057
1938.00	0.1060
1939.00	0.1065
1940.00	0.1067
1941.00	0.1069
1942.00	0.1070
1943.00	0.1069
1944.00	0.1069
1945.00	0.1069
1946.00	0.1071
1947.00	0.1070
1948.00	0.1070
1949.00	0.1071
1950.00	0.1069
1951.00	0.1064
1952.00	0.1061
1953.00	0.1063
1954.00	0.1063
1955.00	0.1065
1956.00	0.1069
1957.00	0.1072
1958.00	0.1072
1959.00	0.1073
1960.00	0.1074
1961.00	0.1076
1962.00	0.1076
1963.00	0.1077
1964.00	0.1076
1965.00	0.1074
1966.00	0.1073
1967.00	0.1075
1968.00	0.1078
1969.00	0.1081
1970.00	0.1080
1971.00	0.1084
1972.00	0.1082
1973.00	0.1080
1974.00	0.1084
1975.00	0.1086
1976.00	0.1086
1977.00	0.1089
1978.00	0.1090
1979.00	0.1090
1980.00	0.1090
1981.00	0.1087
1982.00	0.1086
1983.00	0.1087
1984.00	0.1087
1985.00	0.1088
1986.00	0.1091
1987.00	0.1091
1988.00	0.1092
1989.00	0.1094
1990.00	0.1095
1991.00	0.1098
1992.00	0.1100
1993.00	0.1100
1994.00	0.1098
1995.00	0.1096
1996.00	0.1093
1997.00	0.1095
1998.00	0.1097
1999.00	0.1098
2000.00	0.1103
2001.00	0.1106
2002.00	0.1108
2003.00	0.1106
2004.00	0.1107
2005.00	0.1103
2006.00	0.1102
2007.00	0.1102
2008.00	0.1103
2009.00	0.1106
2010.00	0.1110
2011.00	0.1108
2012.00	0.1107
2013.00	0.1109
2014.00	0.1107
2015.00	0.1106
2016.00	0.1108
2017.00	0.1108
2018.00	0.1107
2019.00	0.1107
2020.00	0.1109
2021.00	0.1111
2022.00	0.1112
2023.00	0.1115
2024.00	0.1115
2025.00	0.1113
2026.00	0.1112
2027.00	0.1110
2028.00	0.1105
2029.00	0.1107
2030.00	0.1108
2031.00	0.1109
2032.00	0.1111
2033.00	0.1115
2034.00	0.1113
2035.00	0.1116
2036.00	0.1118
2037.00	0.1118
2038.00	0.1116
2039.00	0.1116
2040.00	0.1114
2041.00	0.1112
2042.00	0.1111
2043.00	0.1114
2044.00	0.1119
2045.00	0.1123
2046.00	0.1125
2047.00	0.1124
2048.00	0.1119
2049.00	0.1119
2050.00	0.1118
2051.00	0.1120
2052.00	0.1127
2053.00	0.1134
2054.00	0.1136
2055.00	0.1138
2056.00	0.1137
2057.00	0.1133
2058.00	0.1131
2059.00	0.1128
2060.00	0.1127
2061.00	0.1126
2062.00	0.1128
2063.00	0.1133
2064.00	0.1136
2065.00	0.1134
2066.00	0.1137
2067.00	0.1138
2068.00	0.1136
2069.00	0.1137
2070.00	0.1139
2071.00	0.1136
2072.00	0.1133
2073.00	0.1129
2074.00	0.1127
2075.00	0.1128
2076.00	0.1128
2077.00	0.1129
2078.00	0.1135
2079.00	0.1135
2080.00	0.1134
2081.00	0.1134
2082.00	0.1138
2083.00	0.1137
2084.00	0.1139
2085.00	0.1141
2086.00	0.1145
2087.00	0.1145
2088.00	0.1143
2089.00	0.1139
2090.00	0.1141
2091.00	0.1140
2092.00	0.1139
2093.00	0.1137
2094.00	0.1139
2095.00	0.1134
2096.00	0.1133
2097.00	0.1132
2098.00	0.1136
2099.00	0.1138
2100.00	0.1138
2101.00	0.1138
2102.00	0.1139
2103.00	0.1140
2104.00	0.1140
2105.00	0.1139
2106.00	0.1137
2107.00	0.1138
2108.00	0.1138
2109.00	0.1137
2110.00	0.1142
2111.00	0.1143
2112.00	0.1146
2113.00	0.1145
2114.00	0.1147
2115.00	0.1150
2116.00	0.1152
2117.00	0.1151
2118.00	0.1153
2119.00	0.1153
2120.00	0.1151
2121.00	0.1146
2122.00	0.1147
2123.00	0.1146
2124.00	0.1145
2125.00	0.1144
2126.00	0.1150
2127.00	0.1148
2128.00	0.1150
2129.00	0.1151
2130.00	0.1155
2131.00	0.1152
2132.00	0.1151
2133.00	0.1152
2134.00	0.1154
2135.00	0.1153
2136.00	0.1153
2137.00	0.1153
2138.00	0.1147
2139.00	0.1146
2140.00	0.1143
2141.00	0.1141
2142.00	0.1144
2143.00	0.1152
2144.00	0.1150
2145.00	0.1156
2146.00	0.1159
2147.00	0.1156
2148.00	0.1154
2149.00	0.1154
2150.00	0.1148
2151.00	0.1148
2152.00	0.1149
2153.00	0.1147
2154.00	0.1146
2155.00	0.1149
2156.00	0.1149
2157.00	0.1148
2158.00	0.1150
2159.00	0.1152
2160.00	0.1149
2161.00	0.1145
2162.00	0.1144
2163.00	0.1143
2164.00	0.1145
2165.00	0.1149
2166.00	0.1153
2167.00	0.1158
2168.00	0.1160
2169.00	0.1156
2170.00	0.1152
2171.00	0.1152
2172.00	0.1150
2173.00	0.1142
2174.00	0.1146
2175.00	0.1149
2176.00	0.1151
2177.00	0.1153
2178.00	0.1159
2179.00	0.1157
2180.00	0.1163
2181.00	0.1163
2182.00	0.1161
2183.00	0.1163
2184.00	0.1168
2185.00	0.1164
2186.00	0.1163
2187.00	0.1160
2188.00	0.1159
2189.00	0.1155
2190.00	0.1154
2191.00	0.1152
2192.00	0.1152
2193.00	0.1151
2194.00	0.1149
2195.00	0.1146
2196.00	0.1143
2197.00	0.1147
2198.00	0.1148
2199.00	0.1148
2200.00	0.1145
2201.00	0.1152
2202.00	0.1148
2203.00	0.1152
2204.00	0.1152
2205.00	0.1155
2206.00	0.1150
2207.00	0.1150
2208.00	0.1138
2209.00	0.1138
2210.00	0.1140
2211.00	0.1139
2212.00	0.1143
2213.00	0.1149
2214.00	0.1151
2215.00	0.1151
2216.00	0.1155
2217.00	0.1154
2218.00	0.1154
2219.00	0.1154
2220.00	0.1149
2221.00	0.1143
2222.00	0.1144
2223.00	0.1143
2224.00	0.1141
2225.00	0.1142
2226.00	0.1147
2227.00	0.1146
2228.00	0.1145
2229.00	0.1145
2230.00	0.1144
2231.00	0.1145
2232.00	0.1145
2233.00	0.1147
2234.00	0.1150
2235.00	0.1155
2236.00	0.1154
2237.00	0.1150
2238.00	0.1149
2239.00	0.1149
2240.00	0.1153
2241.00	0.1156
2242.00	0.1160
2243.00	0.1166
2244.00	0.1170
2245.00	0.1165
2246.00	0.1158
2247.00	0.1156
2248.00	0.1155
2249.00	0.1150
2250.00	0.1150
2251.00	0.1154
2252.00	0.1158
2253.00	0.1156
2254.00	0.1157
2255.00	0.1157
2256.00	0.1159
2257.00	0.1160
2258.00	0.1160
2259.00	0.1157
2260.00	0.1159
2261.00	0.1158
2262.00	0.1159
2263.00	0.1160
2264.00	0.1164
2265.00	0.1162
2266.00	0.1164
2267.00	0.1161
2268.00	0.1161
2269.00	0.1159
2270.00	0.1158
2271.00	0.1156
2272.00	0.1155
2273.00	0.1154
2274.00	0.1154
2275.00	0.1156
2276.00	0.1157
2277.00	0.1160
2278.00	0.1161
2279.00	0.1161
2280.00	0.1159
2281.00	0.1156
2282.00	0.1151
2283.00	0.1149
2284.00	0.1147
2285.00	0.1148
2286.00	0.1149
2287.00	0.1152
2288.00	0.1153
2289.00	0.1156
2290.00	0.1156
2291.00	0.1156
2292.00	0.1157
2293.00	0.1158
2294.00	0.1156
2295.00	0.1155
2296.00	0.1157
2297.00	0.1156
2298.00	0.1155
2299.00	0.1155
2300.00	0.1152
2301.00	0.1154
2302.00	0.1151
2303.00	0.1153
2304.00	0.1155
2305.00	0.1157
2306.00	0.1156
2307.00	0.1159
2308.00	0.1158
2309.00	0.1158
2310.00	0.1156
2311.00	0.1155
2312.00	0.1153
2313.00	0.1152
2314.00	0.1150
2315.00	0.1153
2316.00	0.1152
2317.00	0.1152
2318.00	0.1150
2319.00	0.1149
2320.00	0.1152
2321.00	0.1154
2322.00	0.1153
2323.00	0.1156
2324.00	0.1159
2325.00	0.1155
2326.00	0.1154
2327.00	0.1153
2328.00	0.1153
2329.00	0.1152
2330.00	0.1153
2331.00	0.1153
2332.00	0.1155
2333.00	0.1156
2334.00	0.1156
2335.00	0.1155
2336.00	0.1152
2337.00	0.1152
2338.00	0.1155
2339.00	0.1156
2340.00	0.1152
2341.00	0.1155
2342.00	0.1155
2343.00	0.1151
2344.00	0.1151
2345.00	0.1153
2346.00	0.1153
2347.00	0.1153
2348.00	0.1152
2349.00	0.1152
2350.00	0.1153
2351.00	0.1153
2352.00	0.1155
2353.00	0.1156
2354.00	0.1157
2355.00	0.1157
2356.00	0.1154
2357.00	0.1149
2358.00	0.1149
2359.00	0.1149
2360.00	0.1148
2361.00	0.1151
2362.00	0.1154
2363.00	0.1156
2364.00	0.1156
2365.00	0.1153
2366.00	0.1156
2367.00	0.1156
2368.00	0.1153
2369.00	0.1153
2370.00	0.1156
2371.00	0.1154
2372.00	0.1154
2373.00	0.1154
2374.00	0.1155
2375.00	0.1156
2376.00	0.1153
2377.00	0.1154
2378.00	0.1153
2379.00	0.1152
2380.00	0.1149
2381.00	0.1148
2382.00	0.1145
2383.00	0.1148
2384.00	0.1145
2385.00	0.1146
2386.00	0.1150
2387.00	0.1156
2388.00	0.1154
2389.00	0.1155
2390.00	0.1155
2391.00	0.1152
2392.00	0.1146
2393.00	0.1145
2394.00	0.1146
2395.00	0.1143
2396.00	0.1145
2397.00	0.1150
2398.00	0.1149
2399.00	0.1151
2400.00	0.1155
2401.00	0.1149
2402.00	0.1145
2403.00	0.1142
2404.00	0.1139
2405.00	0.1139
2406.00	0.1145
2407.00	0.1146
2408.00	0.1147
2409.00	0.1149
2410.00	0.1147
2411.00	0.1146
2412.00	0.1148
2413.00	0.1149
2414.00	0.1146
2415.00	0.1147
2416.00	0.1147
2417.00	0.1150
2418.00	0.1150
2419.00	0.1151
2420.00	0.1149
2421.00	0.1146
2422.00	0.1141
2423.00	0.1138
2424.00	0.1141
2425.00	0.1142
2426.00	0.1143
2427.00	0.1146
2428.00	0.1149
2429.00	0.1146
2430.00	0.1144
2431.00	0.1144
2432.00	0.1141
2433.00	0.1135
2434.00	0.1134
2435.00	0.1140
2436.00	0.1137
2437.00	0.1137
2438.00	0.1143
2439.00	0.1143
2440.00	0.1141
2441.00	0.1143
2442.00	0.1142
2443.00	0.1141
2444.00	0.1141
2445.00	0.1142
2446.00	0.1140
2447.00	0.1138
2448.00	0.1137
2449.00	0.1138
2450.00	0.1135
2451.00	0.1139
2452.00	0.1148
2453.00	0.1149
2454.00	0.1147
2455.00	0.1146
2456.00	0.1148
2457.00	0.1141
2458.00	0.1139
2459.00	0.1140
2460.00	0.1139
2461.00	0.1137
2462.00	0.1136
2463.00	0.1135
2464.00	0.1134
2465.00	0.1129
2466.00	0.1128
2467.00	0.1126
2468.00	0.1121
2469.00	0.1123
2470.00	0.1126
2471.00	0.1125
2472.00	0.1126
2473.00	0.1129
2474.00	0.1127
2475.00	0.1131
2476.00	0.1134
2477.00	0.1138
2478.00	0.1141
2479.00	0.1140
2480.00	0.1139
2481.00	0.1132
2482.00	0.1124
2483.00	0.1123
2484.00	0.1120
2485.00	0.1118
2486.00	0.1121
2487.00	0.1124
2488.00	0.1125
2489.00	0.1125
2490.00	0.1128
2491.00	0.1125
2492.00	0.1128
2493.00	0.1126
2494.00	0.1128
2495.00	0.1120
2496.00	0.1121
2497.00	0.1116
2498.00	0.1114
2499.00	0.1114
2500.00	0.1119
2501.00	0.1124
2502.00	0.1125
2503.00	0.1126
2504.00	0.1129
2505.00	0.1129
2506.00	0.1132
2507.00	0.1130
2508.00	0.1129
2509.00	0.1130
2510.00	0.1130
2511.00	0.1132
2512.00	0.1132
2513.00	0.1130
2514.00	0.1130
2515.00	0.1129
2516.00	0.1128
2517.00	0.1131
2518.00	0.1130
2519.00	0.1129
2520.00	0.1129
2521.00	0.1128
2522.00	0.1130
2523.00	0.1126
2524.00	0.1123
2525.00	0.1122
2526.00	0.1122
2527.00	0.1119
2528.00	0.1120
2529.00	0.1119
2530.00	0.1121
2531.00	0.1122
2532.00	0.1120
2533.00	0.1120
2534.00	0.1122
2535.00	0.1122
2536.00	0.1123
2537.00	0.1124
2538.00	0.1122
2539.00	0.1122
2540.00	0.1122
2541.00	0.1123
2542.00	0.1120
2543.00	0.1118
2544.00	0.1116
2545.00	0.1113
2546.00	0.1111
2547.00	0.1109
2548.00	0.1105
2549.00	0.1103
2550.00	0.1100
2551.00	0.1100
2552.00	0.1099
2553.00	0.1100
2554.00	0.1097
2555.00	0.1096
2556.00	0.1097
2557.00	0.1099
2558.00	0.1098
2559.00	0.1099
2560.00	0.1104
2561.00	0.1111
2562.00	0.1117
2563.00	0.1118
2564.00	0.1118
2565.00	0.1121
2566.00	0.1120
2567.00	0.1119
2568.00	0.1115
2569.00	0.1113
2570.00	0.1117
2571.00	0.1116
2572.00	0.1113
2573.00	0.1120
2574.00	0.1116
2575.00	0.1118
2576.00	0.1120
2577.00	0.1113
2578.00	0.1116
2579.00	0.1118
2580.00	0.1111
2581.00	0.1117
2582.00	0.1116
2583.00	0.1110
2584.00	0.1110
2585.00	0.1105
2586.00	0.1099
2587.00	0.1096
2588.00	0.1089
2589.00	0.1087
2590.00	0.1088
2591.00	0.1094
2592.00	0.1094
2593.00	0.1102
2594.00	0.1103
2595.00	0.1107
2596.00	0.1103
2597.00	0.1099
2598.00	0.1092
2599.00	0.1093
2600.00	0.1087
2601.00	0.1086
2602.00	0.1083
2603.00	0.1083
2604.00	0.1084
2605.00	0.1088
2606.00	0.1080
2607.00	0.1081
2608.00	0.1079
2609.00	0.1078
2610.00	0.1083
2611.00	0.1085
2612.00	0.1082
2613.00	0.1092
2614.00	0.1094
2615.00	0.1097
2616.00	0.1096
2617.00	0.1093
2618.00	0.1096
2619.00	0.1096
2620.00	0.1091
2621.00	0.1089
2622.00	0.1087
2623.00	0.1088
2624.00	0.1087
2625.00	0.1085
2626.00	0.1086
2627.00	0.1089
2628.00	0.1091
2629.00	0.1091
2630.00	0.1092
2631.00	0.1095
2632.00	0.1093
2633.00	0.1089
2634.00	0.1087
2635.00	0.1085
2636.00	0.1084
2637.00	0.1082
2638.00	0.1079
2639.00	0.1079
2640.00	0.1080
2641.00	0.1076
2642.00	0.1074
2643.00	0.1074
2644.00	0.1075
2645.00	0.1072
2646.00	0.1071
2647.00	0.1069
2648.00	0.1068
2649.00	0.1066
2650.00	0.1061
2651.00	0.1058
2652.00	0.1057
2653.00	0.1058
2654.00	0.1057
2655.00	0.1058
2656.00	0.1057
2657.00	0.1062
2658.00	0.1060
2659.00	0.1058
2660.00	0.1059
2661.00	0.1060
2662.00	0.1056
2663.00	0.1056
2664.00	0.1049
2665.00	0.1050
2666.00	0.1057
2667.00	0.1061
2668.00	0.1059
2669.00	0.1058
2670.00	0.1066
2671.00	0.1076
2672.00	0.1075
2673.00	0.1075
2674.00	0.1077
2675.00	0.1075
2676.00	0.1084
2677.00	0.1076
2678.00	0.1067
2679.00	0.1072
2680.00	0.1060
2681.00	0.1047
2682.00	0.1050
2683.00	0.1041
2684.00	0.1037
2685.00	0.1030
2686.00	0.1029
2687.00	0.1030
2688.00	0.1033
2689.00	0.1034
2690.00	0.1042
2691.00	0.1058
2692.00	0.1076
2693.00	0.1093
2694.00	0.1121
2695.00	0.1133
2696.00	0.1155
2697.00	0.1175
2698.00	0.1204
2699.00	0.1240
2700.00	0.1264
2701.00	0.1289
2702.00	0.1308
2703.00	0.1340
2704.00	0.1370
2705.00	0.1407
2706.00	0.1440
2707.00	0.1469
2708.00	0.1492
2709.00	0.1525
2710.00	0.1567
2711.00	0.1618
2712.00	0.1658
2713.00	0.1698
2714.00	0.1733
2715.00	0.1773
2716.00	0.1799
2717.00	0.1820
2718.00	0.1843
2719.00	0.1853
2720.00	0.1869
2721.00	0.1862
2722.00	0.1851
2723.00	0.1840
2724.00	0.1825
2725.00	0.1801
2726.00	0.1785
2727.00	0.1767
2728.00	0.1754
2729.00	0.1714
2730.00	0.1705
2731.00	0.1677
2732.00	0.1674
2733.00	0.1652
2734.00	0.1629
2735.00	0.1621
2736.00	0.1593
2737.00	0.1559
2738.00	0.1532
2739.00	0.1507
2740.00	0.1497
2741.00	0.1471
2742.00	0.1447
2743.00	0.1408
2744.00	0.1371
2745.00	0.1354
2746.00	0.1325
2747.00	0.1308
2748.00	0.1308
2749.00	0.1288
2750.00	0.1264
2751.00	0.1233
2752.00	0.1209
2753.00	0.1184
2754.00	0.1167
2755.00	0.1158
2756.00	0.1135
2757.00	0.1103
2758.00	0.1073
2759.00	0.1047
2760.00	0.1025
2761.00	0.1008
2762.00	0.1004
2763.00	0.0990
2764.00	0.0973
2765.00	0.0958
2766.00	0.0940
2767.00	0.0928
2768.00	0.0921
2769.00	0.0920
2770.00	0.0902
2771.00	0.0892
2772.00	0.0885
2773.00	0.0873
2774.00	0.0867
2775.00	0.0863
2776.00	0.0859
2777.00	0.0858
2778.00	0.0849
2779.00	0.0845
2780.00	0.0840
2781.00	0.0837
2782.00	0.0834
2783.00	0.0828
2784.00	0.0827
2785.00	0.0825
2786.00	0.0823
2787.00	0.0821
2788.00	0.0818
2789.00	0.0820
2790.00	0.0821
2791.00	0.0821
2792.00	0.0820
2793.00	0.0820
2794.00	0.0825
2795.00	0.0823
2796.00	0.0826
2797.00	0.0826
2798.00	0.0822
2799.00	0.0820
2800.00	0.0821
2801.00	0.0824
2802.00	0.0825
2803.00	0.0827
2804.00	0.0828
2805.00	0.0824
2806.00	0.0826
2807.00	0.0827
2808.00	0.0827
2809.00	0.0832
2810.00	0.0833
2811.00	0.0835
2812.00	0.0834
2813.00	0.0835
2814.00	0.0837
2815.00	0.0840
2816.00	0.0844
2817.00	0.0845
2818.00	0.0846
2819.00	0.0851
2820.00	0.0855
2821.00	0.0857
2822.00	0.0861
2823.00	0.0865
2824.00	0.0866
2825.00	0.0870
2826.00	0.0871
2827.00	0.0873
2828.00	0.0878
2829.00	0.0878
2830.00	0.0879
2831.00	0.0880
2832.00	0.0883
2833.00	0.0885
2834.00	0.0889
2835.00	0.0893
2836.00	0.0896
2837.00	0.0899
2838.00	0.0904
2839.00	0.0904
2840.00	0.0907
2841.00	0.0911
2842.00	0.0913
2843.00	0.0915
2844.00	0.0919
2845.00	0.0920
2846.00	0.0923
2847.00	0.0925
2848.00	0.0926
2849.00	0.0929
2850.00	0.0931
2851.00	0.0933
2852.00	0.0934
2853.00	0.0937
2854.00	0.0938
2855.00	0.0938
2856.00	0.0942
2857.00	0.0944
2858.00	0.0947
2859.00	0.0948
2860.00	0.0950
2861.00	0.0952
2862.00	0.0954
2863.00	0.0955
2864.00	0.0955
2865.00	0.0955
2866.00	0.0957
2867.00	0.0959
2868.00	0.0959
2869.00	0.0959
2870.00	0.0958
2871.00	0.0960
2872.00	0.0960
2873.00	0.0960
2874.00	0.0962
2875.00	0.0963
2876.00	0.0965
2877.00	0.0965
2878.00	0.0965
2879.00	0.0966
2880.00	0.0965
2881.00	0.0969
2882.00	0.0967
2883.00	0.0968
2884.00	0.0968
2885.00	0.0968
2886.00	0.0970
2887.00	0.0971
2888.00	0.0972
2889.00	0.0973
2890.00	0.0972
2891.00	0.0974
2892.00	0.0973
2893.00	0.0974
2894.00	0.0976
2895.00	0.0976
2896.00	0.0975
2897.00	0.0974
2898.00	0.0977
2899.00	0.0977
2900.00	0.0976
2901.00	0.0977
2902.00	0.0978
2903.00	0.0979
2904.00	0.0977
2905.00	0.0976
2906.00	0.0977
2907.00	0.0978
2908.00	0.0978
2909.00	0.0977
2910.00	0.0977
2911.00	0.0978
2912.00	0.0980
2913.00	0.0980
2914.00	0.0980
2915.00	0.0982
2916.00	0.0981
2917.00	0.0984
2918.00	0.0983
2919.00	0.0985
2920.00	0.0985
2921.00	0.0984
2922.00	0.0985
2923.00	0.0983
2924.00	0.0983
2925.00	0.0980
2926.00	0.0978
2927.00	0.0979
2928.00	0.0978
2929.00	0.0977
2930.00	0.0975
2931.00	0.0974
2932.00	0.0973
2933.00	0.0973
2934.00	0.0973
2935.00	0.0975
2936.00	0.0976
2937.00	0.0977
2938.00	0.0977
2939.00	0.0977
2940.00	0.0977
2941.00	0.0979
2942.00	0.0980
2943.00	0.0981
2944.00	0.0983
2945.00	0.0979
2946.00	0.0977
2947.00	0.0977
2948.00	0.0977
2949.00	0.0976
2950.00	0.0974
2951.00	0.0975
2952.00	0.0972
2953.00	0.0971
2954.00	0.0969
2955.00	0.0970
2956.00	0.0971
2957.00	0.0972
2958.00	0.0972
2959.00	0.0972
2960.00	0.0973
2961.00	0.0973
2962.00	0.0975
2963.00	0.0975
2964.00	0.0975
2965.00	0.0977
2966.00	0.0977
2967.00	0.0978
2968.00	0.0978
2969.00	0.0978
2970.00	0.0980
2971.00	0.0980
2972.00	0.0983
2973.00	0.0984
2974.00	0.0986
2975.00	0.0985
2976.00	0.0982
2977.00	0.0981
2978.00	0.0980
2979.00	0.0981
2980.00	0.0982
2981.00	0.0981
2982.00	0.0979
2983.00	0.0977
2984.00	0.0977
2985.00	0.0976
2986.00	0.0974
2987.00	0.0978
2988.00	0.0976
2989.00	0.0975
2990.00	0.0972
2991.00	0.0970
2992.00	0.0972
2993.00	0.0973
2994.00	0.0973
2995.00	0.0972
2996.00	0.0975
2997.00	0.0982
2998.00	0.0981
2999.00	0.0986
3000.00	0.0990
3001.00	0.0989
3002.00	0.0991
3003.00	0.0993
3004.00	0.0995
3005.00	0.0998
3006.00	0.0998
3007.00	0.1000
3008.00	0.1001
3009.00	0.1002
3010.00	0.1000
3011.00	0.1000
3012.00	0.1000
3013.00	0.0998
3014.00	0.0997
3015.00	0.0998
3016.00	0.0997
3017.00	0.0998
3018.00	0.0998
3019.00	0.0998
3020.00	0.0998
3021.00	0.0998
3022.00	0.0997
3023.00	0.0997
3024.00	0.0997
3025.00	0.0997
3026.00	0.0996
3027.00	0.0997
3028.00	0.0997
3029.00	0.0996
3030.00	0.0997
3031.00	0.0999
3032.00	0.0998
3033.00	0.0998
3034.00	0.0997
3035.00	0.0996
3036.00	0.0995
3037.00	0.0996
3038.00	0.0996
3039.00	0.0998
3040.00	0.0997
3041.00	0.0994
3042.00	0.0994
3043.00	0.0993
3044.00	0.0992
3045.00	0.0992
3046.00	0.0992
3047.00	0.0991
3048.00	0.0988
3049.00	0.0988
3050.00	0.0988
3051.00	0.0989
3052.00	0.0990
3053.00	0.0989
3054.00	0.0987
3055.00	0.0988
3056.00	0.0987
3057.00	0.0988
3058.00	0.0991
3059.00	0.0991
3060.00	0.0993
3061.00	0.0993
3062.00	0.0992
3063.00	0.0995
3064.00	0.0996
3065.00	0.0998
3066.00	0.0999
3067.00	0.0999
3068.00	0.0998
3069.00	0.0996
3070.00	0.0996
3071.00	0.0996
3072.00	0.0996
3073.00	0.0993
3074.00	0.0992
3075.00	0.0990
3076.00	0.0990
3077.00	0.0988
3078.00	0.0987
3079.00	0.0987
3080.00	0.0985
3081.00	0.0983
3082.00	0.0980
3083.00	0.0979
3084.00	0.0978
3085.00	0.0979
3086.00	0.0978
3087.00	0.0978
3088.00	0.0978
3089.00	0.0976
3090.00	0.0978
3091.00	0.0978
3092.00	0.0979
3093.00	0.0979
3094.00	0.0979
3095.00	0.0977
3096.00	0.0976
3097.00	0.0974
3098.00	0.0974
3099.00	0.0973
3100.00	0.0974
3101.00	0.0976
3102.00	0.0973
3103.00	0.0975
3104.00	0.0977
3105.00	0.0975
3106.00	0.0974
3107.00	0.0972
3108.00	0.0970
3109.00	0.0969
3110.00	0.0968
3111.00	0.0966
3112.00	0.0967
3113.00	0.0967
3114.00	0.0968
3115.00	0.0970
3116.00	0.0970
3117.00	0.0967
3118.00	0.0964
3119.00	0.0965
3120.00	0.0963
3121.00	0.0960
3122.00	0.0961
3123.00	0.0960
3124.00	0.0960
3125.00	0.0959
3126.00	0.0961
3127.00	0.0963
3128.00	0.0963
3129.00	0.0963
3130.00	0.0964
3131.00	0.0962
3132.00	0.0962
3133.00	0.0959
3134.00	0.0959
3135.00	0.0958
3136.00	0.0958
3137.00	0.0958
3138.00	0.0958
3139.00	0.0959
3140.00	0.0958
3141.00	0.0959
3142.00	0.0957
3143.00	0.0956
3144.00	0.0953
3145.00	0.0954
3146.00	0.0952
3147.00	0.0949
3148.00	0.0948
3149.00	0.0945
3150.00	0.0948
3151.00	0.0948
3152.00	0.0946
3153.00	0.0947
3154.00	0.0942
3155.00	0.0939
3156.00	0.0936
3157.00	0.0933
3158.00	0.0931
3159.00	0.0935
3160.00	0.0934
3161.00	0.0936
3162.00	0.0931
3163.00	0.0930
3164.00	0.0932
3165.00	0.0931
3166.00	0.0931
3167.00	0.0927
3168.00	0.0928
3169.00	0.0926
3170.00	0.0924
3171.00	0.0927
3172.00	0.0932
3173.00	0.0934
3174.00	0.0938
3175.00	0.0943
3176.00	0.0942
3177.00	0.0940
3178.00	0.0939
3179.00	0.0939
3180.00	0.0943
3181.00	0.0943
3182.00	0.0947
3183.00	0.0953
3184.00	0.0953
3185.00	0.0953
3186.00	0.0956
3187.00	0.0959
3188.00	0.0957
3189.00	0.0961
3190.00	0.0962
3191.00	0.0960
3192.00	0.0956
3193.00	0.0955
3194.00	0.0957
3195.00	0.0959
3196.00	0.0967
3197.00	0.0964
3198.00	0.0964
3199.00	0.0962
3200.00	0.0954
3201.00	0.0959
3202.00	0.0956
3203.00	0.0960
3204.00	0.0957
3205.00	0.0954
3206.00	0.0943
3207.00	0.0942
3208.00	0.0939
3209.00	0.0936
3210.00	0.0941
3211.00	0.0939
3212.00	0.0943
3213.00	0.0940
3214.00	0.0938
3215.00	0.0935
3216.00	0.0935
3217.00	0.0942
3218.00	0.0934
3219.00	0.0937
3220.00	0.0937
3221.00	0.0941
3222.00	0.0944
3223.00	0.0952
3224.00	0.0951
3225.00	0.0958
3226.00	0.0965
3227.00	0.0958
3228.00	0.0961
3229.00	0.0958
3230.00	0.0946
3231.00	0.0947
3232.00	0.0952
3233.00	0.0948
3234.00	0.0948
3235.00	0.0951
3236.00	0.0945
3237.00	0.0947
3238.00	0.0935
3239.00	0.0940
3240.00	0.0936
3241.00	0.0938
3242.00	0.0928
3243.00	0.0926
3244.00	0.0927
3245.00	0.0906
3246.00	0.0902
3247.00	0.0910
3248.00	0.0908
3249.00	0.0914
3250.00	0.0915
3251.00	0.0912
3252.00	0.0901
3253.00	0.0896
3254.00	0.0895
3255.00	0.0905
3256.00	0.0889
3257.00	0.0899
3258.00	0.0888
3259.00	0.0902
3260.00	0.0898
3261.00	0.0901
3262.00	0.0906
3263.00	0.0894
3264.00	0.0904
3265.00	0.0911
3266.00	0.0900
3267.00	0.0901
3268.00	0.0886
3269.00	0.0888
3270.00	0.0888
3271.00	0.0869
3272.00	0.0838
3273.00	0.0858
3274.00	0.0846
3275.00	0.0855
3276.00	0.0842
3277.00	0.0834
3278.00	0.0853
3279.00	0.0863
3280.00	0.0879
3281.00	0.0892
3282.00	0.0904
3283.00	0.0906
3284.00	0.0886
3285.00	0.0910
3286.00	0.0938
3287.00	0.0947
3288.00	0.0927
3289.00	0.0966
3290.00	0.0947
3291.00	0.0938
3292.00	0.0960
3293.00	0.0987
3294.00	0.1019
3295.00	0.1020
3296.00	0.1045
3297.00	0.1064
3298.00	0.1065
3299.00	0.1070
3300.00	0.1096
